#  Fermi level (eV):  -7.020
#  Charge transfer :   0.446
#    Electron counts for each orbital momentum:
#       0      0.611
#       1      0.792
#       2      7.151
#       3      0.000
#  Number of atoms in cluster: 139
#  Lorentzian broadening with HWHH     0.1000 eV
# -----------------------------------------------------------------------
#      e        sDOS           pDOS          dDOS          fDOS    @#
   -30.0000  2.674453E-03  1.794053E-03  2.568611E-03  1.086260E-03
   -29.5500  9.471693E-03  3.095040E-03  3.876224E-03  1.530352E-03
   -29.1000  4.273881E-02  1.274246E-02  9.337115E-03  3.899057E-03
   -28.6500  9.870054E-02  2.054943E-02  2.732795E-02  6.952229E-03
   -28.2000  5.569426E-02  6.785516E-02  1.403827E-01  2.168342E-02
   -27.7500  3.401494E-02  1.444147E-01  2.460150E-01  5.172169E-02
   -27.3000  1.072901E-02  7.639354E-02  6.312008E-02  3.032678E-02
   -26.8500  2.479009E-03  8.900639E-03  1.041385E-02  3.825453E-03
   -26.4000  1.377480E-03  3.679358E-03  5.176959E-03  1.811871E-03
   -25.9500  1.003255E-03  2.369382E-03  3.890327E-03  1.310915E-03
   -25.5000  1.114267E-03  3.504875E-03  5.916017E-03  1.498739E-03
   -25.0500  2.684884E-03  6.139052E-03  1.213895E-02  3.373859E-03
   -24.6000  5.225435E-02  4.640260E-03  2.239302E-02  2.062659E-02
   -24.1500  6.521245E-04  1.147350E-03  2.947716E-03  9.165269E-04
   -23.7000  5.459125E-04  9.458571E-04  2.763764E-03  7.955401E-04
   -23.2500  5.228748E-04  8.688289E-04  2.815592E-03  7.548683E-04
   -22.8000  5.292308E-04  8.365298E-04  2.965645E-03  7.377374E-04
   -22.3500  5.554270E-04  8.304621E-04  3.190380E-03  7.326595E-04
   -21.9000  6.010553E-04  8.460044E-04  3.498552E-03  7.398163E-04
   -21.4500  6.681331E-04  8.796148E-04  3.890380E-03  7.504392E-04
   -21.0000 -1.083993E-01  4.428431E-02 -3.558186E-02 -1.975187E-02
   -20.5500  9.054304E-04  1.023740E-03  5.131335E-03  8.188821E-04
   -20.1000  1.103901E-03  1.129328E-03  5.944880E-03  8.089492E-04
   -19.6500  1.388533E-03  1.236308E-03  6.618149E-03  6.233701E-04
   -19.2000  7.693613E-03  5.043526E-03  5.149153E-03  5.573374E-04
   -18.7500  7.466275E-04 -2.005986E-03 -2.003250E-02 -1.126434E-02
   -18.3000  1.122845E-03  1.163236E-03  1.380411E-02  1.779752E-04
   -17.8500  1.825425E-02  6.878732E-03  5.682229E-02  2.145804E-03
   -17.4000  1.022217E-01  2.907280E-02  3.816212E-01  8.814310E-03
   -16.9500  1.490890E-01  6.576909E-02  3.962592E-01  1.533176E-02
   -16.5000  1.056247E-01  7.567997E-02  4.925203E-01  1.616852E-02
   -16.0500  7.375992E-02  1.103167E-01  4.866808E-01  2.495676E-02
   -15.6000  3.076656E-02  1.020002E-02  1.383914E-01  7.322952E-04
   -15.1500  6.816597E-02  9.086178E-02  6.991245E-01  3.624467E-02
   -14.7000  7.109037E-02  7.516025E-02  4.731298E-01  4.167566E-02
   -14.2500  3.731341E-02  9.177451E-02  3.391869E-01  4.845181E-02
   -13.8000  2.325564E-01  2.959540E-02  1.520833E-01  1.371756E-03
   -13.3500  3.145748E-02  1.445745E-01  3.226394E-01  7.634499E-02
   -12.9000  1.948085E-02  1.456261E-01  2.654474E-01  1.101909E-01
   -12.4500  8.167321E-03  5.581248E-02  1.066238E-01  5.093665E-02
   -12.0000  5.154829E-03  2.000670E-02  9.323025E-02  1.990939E-02
   -11.5500  5.941918E-03  1.178536E-02  1.338274E-01  1.212686E-02
   -11.1000  1.514531E-02  1.224110E-02  3.266570E-01  1.088579E-02
   -10.6500  2.743397E-02  2.353828E-02  8.159634E-01  1.924215E-02
   -10.2000  5.222658E-02  9.683781E-02  8.391271E-01  4.141712E-03
    -9.7500  3.556929E-02  2.599040E-02  1.684696E+00  2.269511E-02
    -9.3000  1.835552E-02  2.863457E-02  2.942109E+00  2.381609E-02
    -8.8500  1.544299E-02  1.720181E-02  1.353458E+00  1.809429E-02
    -8.4000  3.352800E-02  1.110908E-01  3.832842E-01  5.876352E-03
    -7.9500  1.017497E-02  8.612865E-03  6.033868E-01  1.366383E-02
    -7.5000  6.330576E-03  9.904267E-03  2.224658E-01  7.497779E-03
    -7.0500  7.404210E-03  1.370178E-02  2.423376E-01  8.565813E-03
    -6.6000  8.436446E-03  1.489547E-02  3.547231E-01  1.299755E-02
    -6.1500  1.806098E-02  2.098402E-02  9.032039E-01  2.147885E-02
    -5.7000  2.064152E-02  2.948381E-02  1.092232E+00  1.775169E-02
    -5.2500  2.676669E-02  4.207556E-02  1.075362E+00  2.081222E-02
    -4.8000  4.048059E-02  1.139675E-01  1.584711E-01  1.912222E-02
    -4.3500  2.222942E-02  3.767951E-02  5.451300E-01  1.804730E-02
    -3.9000  1.714637E-02  2.481303E-02  2.114218E-01  1.817871E-02
    -3.4500  1.959447E-02  2.828196E-02  1.485095E-01  2.123930E-02
    -3.0000  4.739433E-02  1.069107E-01  1.558857E-01  3.071372E-02
    -2.5500  4.322207E-02  4.235484E-02  1.292416E-01  1.956026E-02
    -2.1000  5.079559E-02  4.832721E-02  1.017252E-01  2.614432E-02
    -1.6500  6.722665E-02  5.506442E-02  8.504339E-02  2.978069E-02
    -1.2000  7.390529E-02  5.160812E-02  7.480422E-02  2.894358E-02
    -0.7500  8.243303E-02  4.759440E-02  6.380270E-02  3.184113E-02
    -0.3000  7.871098E-02  4.913583E-02  5.718355E-02  3.652486E-02
     0.1500  9.049440E-02  5.924053E-02  5.552144E-02  4.453122E-02
     0.6000  4.052650E-02  1.129938E-01  1.163650E-01  5.626907E-02
     1.0500  2.018509E-01  1.017934E-01  6.467777E-02  8.335050E-02
     1.5000  2.091762E-01  9.670710E-02  6.461578E-02  8.031934E-02
     1.9500  1.489231E-01  8.696575E-02  6.956310E-02  6.741209E-02
     2.4000  3.758800E-02  1.140498E-01  1.076119E-01  7.274426E-02
     2.8500  7.950828E-02  6.823710E-02  6.929954E-02  5.736453E-02
     3.3000  8.443971E-02  6.786536E-02  7.562485E-02  6.411506E-02
     3.7500  8.895383E-02  7.746988E-02  8.952379E-02  7.343532E-02
     4.2000  8.910001E-02  9.163992E-02  9.663369E-02  8.138111E-02
     4.6500  7.567693E-02  1.056131E-01  8.762707E-02  8.936923E-02
     5.1000  5.423437E-02  1.143447E-01  7.548596E-02  9.154379E-02
     5.5500  3.778974E-02  1.281568E-01  6.750181E-02  9.002434E-02
     6.0000  3.257552E-02  1.131602E-01  1.003355E-01  1.131353E-01
     6.4500  1.899419E-02  1.816206E-01  5.879252E-02  9.386313E-02
     6.9000  1.528874E-02  2.124927E-01  5.738464E-02  9.919910E-02
     7.3500  1.380068E-02  2.065089E-01  5.659985E-02  9.791587E-02
     7.8000  3.045259E-02  1.115597E-01  9.980257E-02  1.367623E-01
     8.2500  1.425685E-02  1.791350E-01  5.536603E-02  8.961484E-02
     8.7000  1.514725E-02  1.740037E-01  5.638155E-02  8.613554E-02
     9.1500  1.610645E-02  1.686305E-01  5.975296E-02  8.600102E-02
     9.6000  1.695586E-02  1.649565E-01  6.438085E-02  9.013768E-02
    10.0500  1.716441E-02  1.606990E-01  6.815179E-02  9.712806E-02
    10.5000  1.656593E-02  1.534249E-01  7.098054E-02  1.041948E-01
    10.9500  1.559998E-02  1.451378E-01  7.395624E-02  1.102492E-01
    11.4000  2.686377E-02  1.067830E-01  1.022349E-01  1.890516E-01
    11.8500  1.511298E-02  1.389776E-01  8.173602E-02  1.344713E-01
    12.3000  1.585803E-02  1.384835E-01  8.609933E-02  1.549048E-01
    12.7500  1.675235E-02  1.337210E-01  8.860452E-02  1.687469E-01
    13.2000  1.771681E-02  1.258553E-01  8.830625E-02  1.764695E-01
    13.6500  1.896908E-02  1.191471E-01  8.669598E-02  1.865538E-01
    14.1000  2.007352E-02  1.152244E-01  8.545254E-02  1.990528E-01
    14.5500  2.007256E-02  1.132987E-01  8.484687E-02  2.095764E-01
    15.0000  1.894634E-02  1.130550E-01  8.467471E-02  2.160656E-01
