#  Fermi level (eV):  -7.887
#  Charge transfer :  -0.249
#    Electron counts for each orbital momentum:
#       0      1.788
#       1      4.354
#       2      0.106
#       3      0.000
#  Number of atoms in cluster: 105
#  Lorentzian broadening with HWHH     0.1000 eV
# -----------------------------------------------------------------------
#      e        sDOS           pDOS          dDOS          fDOS    @#
   -30.0000  1.461790E-02  7.080791E-04  1.157844E-04  5.713622E-05
   -29.5500  2.840599E-02  7.867393E-04  1.318609E-04  6.086366E-05
   -29.1000  1.072163E-01  9.644949E-04  2.078068E-04  7.232328E-05
   -28.6500  3.852773E-01  3.106795E-03  4.824687E-04  1.444382E-04
   -28.2000  6.306170E-01  2.790504E-03  7.599531E-04  3.221899E-04
   -27.7500  8.356800E-01  5.631212E-03  1.442001E-03  5.664655E-04
   -27.3000  7.235549E-01  2.579362E-03  4.801402E-04  1.739162E-04
   -26.8500  7.445257E-02  1.412543E-03  1.938093E-04  8.221546E-05
   -26.4000  3.059067E-02  1.546889E-03  1.918017E-04  7.578457E-05
   -25.9500  2.159007E-02  2.229938E-03  2.676824E-04  8.550348E-05
   -25.5000  5.394360E-02  9.950814E-03  1.243904E-03  2.141089E-04
   -25.0500  2.217680E-01  2.980650E-02  3.680874E-03  6.742132E-04
   -24.6000  6.870656E-03  2.610642E-03  1.430462E-03  2.463346E-03
   -24.1500  1.175369E-02  2.479795E-03  2.559414E-04  8.799827E-05
   -23.7000  6.186932E-03  2.103158E-03  1.894191E-04  7.615558E-05
   -23.2500  4.156502E-03  2.111214E-03  1.713770E-04  7.364384E-05
   -22.8000  3.102614E-03  2.247305E-03  1.661314E-04  7.360095E-05
   -22.3500  2.454468E-03  2.462917E-03  1.661537E-04  7.468590E-05
   -21.9000  2.015580E-03  2.752135E-03  1.690590E-04  7.651704E-05
   -21.4500  1.699867E-03  3.124594E-03  1.739268E-04  7.892807E-05
   -21.0000 -2.362459E-02  2.560004E-02  3.550883E-03 -2.411403E-03
   -20.5500  1.284466E-03  4.240533E-03  1.892641E-04  8.622061E-05
   -20.1000  1.146882E-03  5.110050E-03  2.006916E-04  9.220243E-05
   -19.6500  1.035374E-03  6.271408E-03  2.134205E-04  9.809141E-05
   -19.2000  7.822708E-03  2.823817E-03  1.653041E-04  6.249151E-05
   -18.7500  1.082235E-03  1.459802E-02  3.671869E-04  2.351563E-04
   -18.3000 -3.830746E-03 -4.731933E-02 -2.792839E-03 -4.397975E-04
   -17.8500  9.810459E-04  3.089094E-02  3.695991E-04  3.192347E-04
   -17.4000  1.540684E-03  1.014636E-01  7.947667E-04  7.336657E-04
   -16.9500  5.800255E-03  9.299567E-01  3.778528E-03  5.850177E-03
   -16.5000  7.488880E-03  3.304364E-01  3.541750E-03  2.274520E-03
   -16.0500  1.330465E-02  2.817572E-01  6.372510E-03  1.540606E-03
   -15.6000  2.784059E-02  3.681415E-01  7.490714E-04  8.692598E-05
   -15.1500  6.161223E-03  7.973119E-01  8.239445E-03  3.625423E-03
   -14.7000  5.588093E-03  7.939955E-01  7.655784E-03  1.772817E-03
   -14.2500  5.558799E-03  8.083436E-01  3.951452E-03  1.261752E-03
   -13.8000  1.688161E-02  1.271567E+00  1.319955E-03  1.058297E-04
   -13.3500  4.465488E-03  6.648619E-01  5.340261E-03  1.876614E-03
   -12.9000  3.799039E-03  7.278457E-01  5.090576E-03  2.330543E-03
   -12.4500  5.703427E-03  4.698681E-01  5.376148E-03  1.477330E-03
   -12.0000  2.333468E-03  5.034191E-01  6.986203E-03  1.333072E-03
   -11.5500  1.945386E-03  1.574075E-01  1.172035E-02  1.672119E-03
   -11.1000  1.877329E-03  1.331138E-01  2.467501E-02  2.512182E-03
   -10.6500  1.993791E-03  2.319671E-01  1.548115E-02  3.069201E-03
   -10.2000  8.164302E-03  2.619064E-01  4.150031E-03  2.386726E-04
    -9.7500  7.486052E-03  1.736844E-01  2.015436E-02  2.919124E-03
    -9.3000  8.106164E-03  1.683555E-01  2.500285E-02  3.543689E-03
    -8.8500  6.374191E-03  2.664285E-01  1.518941E-02  5.418575E-03
    -8.4000  8.818179E-03  1.762460E-01  7.177815E-03  4.662133E-04
    -7.9500  6.610188E-03  2.333528E-01  2.079618E-02  9.219644E-03
    -7.5000  6.761212E-03  1.321511E-01  8.945210E-03  6.196468E-03
    -7.0500  9.026441E-03  8.378203E-02  6.473821E-03  2.679343E-03
    -6.6000  1.321669E-02  6.776216E-02  7.503380E-03  1.869288E-03
    -6.1500  2.035041E-02  6.181433E-02  9.759308E-03  1.872224E-03
    -5.7000  2.830451E-02  5.552548E-02  1.332911E-02  2.065340E-03
    -5.2500  3.119838E-02  5.487273E-02  1.943287E-02  2.515071E-03
    -4.8000  9.412175E-03  8.727992E-02  1.507389E-02  1.276903E-03
    -4.3500  3.576169E-02  8.600609E-02  2.226403E-02  3.877356E-03
    -3.9000  3.322506E-02  1.221972E-01  2.317195E-02  4.319829E-03
    -3.4500  3.490119E-02  1.423801E-01  2.802144E-02  4.747423E-03
    -3.0000  1.190943E-02  9.155279E-02  1.971855E-02  1.730500E-03
    -2.5500  2.684510E-02  1.095636E-01  2.893909E-02  3.896011E-03
    -2.1000  1.912579E-02  1.065027E-01  2.365323E-02  3.820510E-03
    -1.6500  1.502539E-02  1.158885E-01  2.021526E-02  4.490664E-03
    -1.2000  1.274001E-02  1.491264E-01  1.877139E-02  6.333081E-03
    -0.7500  1.265403E-02  1.221443E-01  1.702608E-02  5.727432E-03
    -0.3000  1.530497E-02  7.699024E-02  1.880063E-02  3.454418E-03
     0.1500  1.851874E-02  7.915384E-02  2.520704E-02  3.084673E-03
     0.6000  1.213329E-02  7.110301E-02  3.073611E-02  3.235110E-03
     1.0500  1.758815E-02  1.082459E-01  2.763913E-02  3.306234E-03
     1.5000  1.412647E-02  9.795382E-02  2.485322E-02  3.350507E-03
     1.9500  1.163927E-02  9.245418E-02  2.428129E-02  3.517118E-03
     2.4000  1.228732E-02  6.481242E-02  3.696582E-02  4.227622E-03
     2.8500  9.524023E-03  8.446958E-02  3.006841E-02  3.842208E-03
     3.3000  9.226618E-03  8.786613E-02  3.548958E-02  4.243505E-03
     3.7500  9.873310E-03  8.620866E-02  4.150713E-02  4.724712E-03
     4.2000  1.119682E-02  8.138896E-02  4.627670E-02  5.149755E-03
     4.6500  1.133058E-02  7.596345E-02  4.647368E-02  5.245221E-03
     5.1000  1.034703E-02  6.889185E-02  4.429911E-02  5.078073E-03
     5.5500  9.396779E-03  6.249046E-02  4.282758E-02  4.931330E-03
     6.0000  1.266652E-02  5.671221E-02  5.049752E-02  6.732649E-03
     6.4500  8.629830E-03  5.528830E-02  4.403231E-02  5.046256E-03
     6.9000  8.731611E-03  5.300198E-02  4.711926E-02  5.336973E-03
     7.3500  8.941506E-03  5.104186E-02  5.299215E-02  5.812990E-03
     7.8000  1.288452E-02  5.419538E-02  5.762716E-02  8.255021E-03
     8.2500  9.106006E-03  5.076582E-02  6.981204E-02  7.411434E-03
     8.7000  9.100427E-03  5.122444E-02  7.473651E-02  8.319570E-03
     9.1500  9.166267E-03  5.115989E-02  7.643754E-02  9.220028E-03
     9.6000  9.264370E-03  5.052222E-02  7.456817E-02  1.000562E-02
    10.0500  9.417077E-03  4.983994E-02  7.091207E-02  1.052024E-02
    10.5000  9.646634E-03  4.957458E-02  6.815371E-02  1.077355E-02
    10.9500  9.947936E-03  5.007071E-02  6.727989E-02  1.088195E-02
    11.4000  1.335846E-02  5.116977E-02  7.214257E-02  1.184961E-02
    11.8500  9.325493E-03  5.062157E-02  7.040255E-02  1.114932E-02
    12.3000  8.504996E-03  4.812966E-02  7.438000E-02  1.145976E-02
    12.7500  8.111270E-03  4.509846E-02  7.913082E-02  1.206535E-02
    13.2000  8.120239E-03  4.277753E-02  8.368678E-02  1.312655E-02
    13.6500  8.413036E-03  4.129786E-02  8.681825E-02  1.455146E-02
    14.1000  8.948626E-03  4.034866E-02  8.790288E-02  1.589761E-02
    14.5500  9.769513E-03  3.987741E-02  8.739014E-02  1.678731E-02
    15.0000  1.100476E-02  4.004558E-02  8.661293E-02  1.735055E-02
