#  Fermi level (eV):  -6.313
#  Charge transfer :   0.058
#    Electron counts for each orbital momentum:
#       0      0.369
#       1      6.460
#       2      1.113
#       3      0.000
#  Number of atoms in cluster: 118
#  Lorentzian broadening with HWHH     0.1000 eV
# -----------------------------------------------------------------------
#      e        sDOS           pDOS          dDOS          fDOS    @#
   -30.0000  6.375470E-04  7.920016E-03  8.093838E-04  4.484506E-04
   -29.5500  6.629307E-04  9.811696E-03  8.929435E-04  4.863013E-04
   -29.1000  7.316210E-04  1.265703E-02  1.016066E-03  5.416422E-04
   -28.6500  9.097435E-04  1.748843E-02  1.219572E-03  6.322586E-04
   -28.2000  1.554137E-03  2.825779E-02  1.631184E-03  8.162696E-04
   -27.7500  1.276759E-02  1.048439E-01  3.227028E-03  1.739672E-03
   -27.3000  6.271483E-03  2.059973E-01  1.744270E-02  4.537265E-03
   -26.8500  2.525238E-02  8.365542E-01  2.497472E-02  1.235523E-02
   -26.4000  2.552471E-02  6.377599E-01  5.609533E-02  2.358833E-02
   -25.9500  1.432307E-02  2.777003E-01  6.228536E-02  4.157415E-02
   -25.5000  2.129468E-03  1.651879E-01  6.620151E-03  4.129262E-03
   -25.0500  1.182406E-03  4.448006E-01  4.199704E-03  3.389950E-03
   -24.6000  2.108212E-03  4.372438E+00  1.284394E-02  1.310403E-02
   -24.1500  3.048420E-03  3.703277E+00  3.064912E-02  6.650533E-03
   -23.7000  6.986511E-04  7.116379E-01  2.998208E-03  3.292643E-03
   -23.2500  5.337261E-04  1.601748E-01  1.787109E-03  1.094761E-03
   -22.8000  4.799117E-04  7.487365E-02  1.518174E-03  8.180881E-04
   -22.3500  4.557634E-04  4.414516E-02  1.434150E-03  7.276066E-04
   -21.9000  4.457765E-04  2.937514E-02  1.419452E-03  6.919250E-04
   -21.4500  4.450666E-04  2.109406E-02  1.441730E-03  6.808649E-04
   -21.0000  4.518709E-04  1.597525E-02  1.488966E-03  6.835045E-04
   -20.5500  4.660186E-04  1.259299E-02  1.557734E-03  6.962593E-04
   -20.1000  4.883098E-04  1.024918E-02  1.648305E-03  7.179932E-04
   -19.6500  5.204421E-04  8.568253E-03  1.761793E-03  7.468265E-04
   -19.2000  5.659351E-04  7.337091E-03  1.905509E-03  7.854582E-04
   -18.7500  6.308338E-04  6.429952E-03  2.091339E-03  8.378294E-04
   -18.3000  7.273488E-04  5.778502E-03  2.346458E-03  9.165787E-04
   -17.8500  8.729089E-04  5.331488E-03  2.674972E-03  1.000157E-03
   -17.4000  1.113480E-03  5.091254E-03  3.125268E-03  1.079955E-03
   -16.9500  1.729615E-03  5.579926E-03  4.844066E-03  2.000495E-03
   -16.5000 -4.009048E-03 -1.342012E-02 -3.913436E-02 -3.813841E-02
   -16.0500  1.664551E-02  2.551666E-02  4.489373E-02  1.526783E-02
   -15.6000  4.610285E-02  3.996981E-02  4.778965E-02  1.448896E-02
   -15.1500  3.215041E-02  4.902119E-02  4.951862E-02  1.732756E-02
   -14.7000  7.311983E-02  8.025469E-02  1.105125E-01  2.542094E-02
   -14.2500  3.594183E-02  7.864992E-02  1.336265E-01  3.444582E-02
   -13.8000  3.016692E-02  7.544313E-02  1.086956E-01  3.268471E-02
   -13.3500  3.585472E-02  7.614248E-02  1.402050E-01  3.228435E-02
   -12.9000  3.784499E-02  8.838167E-02  1.730182E-01  4.650019E-02
   -12.4500  4.162773E-02  8.380198E-02  1.704910E-01  6.316489E-02
   -12.0000  4.146342E-02  6.683998E-02  1.372747E-01  7.525652E-02
   -11.5500  2.798625E-02  6.199779E-02  1.122906E-01  6.087460E-02
   -11.1000  1.569254E-02  4.215729E-02  8.176398E-02  4.181955E-02
   -10.6500  9.925215E-03  2.323767E-02  4.605852E-02  1.845095E-02
   -10.2000  1.314844E-02  2.527815E-02  5.622418E-02  1.665866E-02
    -9.7500  1.876905E-02  3.547078E-02  8.292269E-02  2.578355E-02
    -9.3000  1.633137E-02  3.263514E-02  7.366389E-02  2.748569E-02
    -8.8500  1.803395E-02  2.836863E-02  7.348342E-02  2.738350E-02
    -8.4000  1.864140E-02  2.917452E-02  7.340960E-02  2.508353E-02
    -7.9500  2.387188E-02  2.712338E-02  7.139391E-02  1.991405E-02
    -7.5000  3.385338E-02  3.233858E-02  9.276814E-02  1.728523E-02
    -7.0500  3.455634E-02  2.926253E-02  9.086148E-02  1.365180E-02
    -6.6000  3.034139E-02  3.237449E-02  9.793943E-02  1.228619E-02
    -6.1500  4.625365E-02  4.177385E-02  1.459022E-01  1.381378E-02
    -5.7000  8.437066E-02  6.279123E-02  2.963608E-01  1.984890E-02
    -5.2500  9.946201E-02  9.274073E-02  7.771118E-01  3.006487E-02
    -4.8000  7.688010E-02  1.113848E-01  1.164889E+00  3.810013E-02
    -4.3500  4.734025E-02  1.108815E-01  8.262512E-01  5.211935E-02
    -3.9000  3.594104E-02  8.807160E-02  6.524016E-01  5.356147E-02
    -3.4500  3.757899E-02  6.719409E-02  6.952873E-01  4.576952E-02
    -3.0000  4.237011E-02  6.004080E-02  8.929248E-01  4.238741E-02
    -2.5500  5.616207E-02  6.485386E-02  1.124257E+00  4.575061E-02
    -2.1000  8.259285E-02  7.006216E-02  1.200963E+00  5.301688E-02
    -1.6500  1.049405E-01  7.533974E-02  1.586250E+00  6.519754E-02
    -1.2000  1.244326E-01  7.945372E-02  1.632477E+00  6.714137E-02
    -0.7500  8.786288E-02  1.092627E-01  1.246205E+00  6.983464E-02
    -0.3000  8.397676E-02  1.365711E-01  1.217828E+00  7.644279E-02
     0.1500  9.607708E-02  1.293490E-01  8.973936E-01  7.472073E-02
     0.6000  1.045931E-01  1.126158E-01  4.581265E-01  7.450049E-02
     1.0500  1.138366E-01  1.149414E-01  3.458246E-01  8.461727E-02
     1.5000  1.148700E-01  1.395815E-01  3.156921E-01  1.022256E-01
     1.9500  9.464186E-02  1.759364E-01  3.088680E-01  1.343931E-01
     2.4000  7.799633E-02  1.926841E-01  2.946829E-01  1.689094E-01
     2.8500  7.594310E-02  2.060033E-01  2.865830E-01  1.985882E-01
     3.3000  8.086170E-02  2.417374E-01  3.049705E-01  2.253486E-01
     3.7500  7.220307E-02  2.398894E-01  3.001749E-01  2.190276E-01
     4.2000  6.632583E-02  2.109333E-01  2.816712E-01  2.109843E-01
     4.6500  6.872317E-02  1.948060E-01  2.830665E-01  2.216377E-01
     5.1000  7.016284E-02  1.912005E-01  2.985777E-01  2.395913E-01
     5.5500  6.793505E-02  1.883427E-01  2.969392E-01  2.526373E-01
     6.0000  6.547253E-02  1.869151E-01  2.647580E-01  2.604762E-01
     6.4500  6.384705E-02  2.015978E-01  2.324662E-01  2.708487E-01
     6.9000  6.146878E-02  2.248533E-01  2.105329E-01  2.835760E-01
     7.3500  5.494376E-02  2.416557E-01  1.930850E-01  2.941905E-01
     7.8000  4.535783E-02  2.465225E-01  1.780349E-01  3.007085E-01
     8.2500  3.709708E-02  2.458656E-01  1.689195E-01  3.100204E-01
     8.7000  3.208647E-02  2.447813E-01  1.669091E-01  3.310758E-01
     9.1500  2.969147E-02  2.367577E-01  1.682700E-01  3.651986E-01
     9.6000  2.777119E-02  2.163550E-01  1.679895E-01  4.054791E-01
    10.0500  2.583774E-02  1.953363E-01  1.669304E-01  4.463782E-01
    10.5000  2.440081E-02  1.783934E-01  1.691965E-01  4.810438E-01
    10.9500  2.358093E-02  1.628349E-01  1.785944E-01  5.048980E-01
    11.4000  2.331136E-02  1.505733E-01  1.950659E-01  5.190176E-01
    11.8500  2.322792E-02  1.446553E-01  2.154615E-01  5.287076E-01
    12.3000  2.298325E-02  1.411089E-01  2.356258E-01  5.390365E-01
    12.7500  2.265054E-02  1.323002E-01  2.449002E-01  5.491479E-01
    13.2000  2.258298E-02  1.210320E-01  2.409916E-01  5.633396E-01
    13.6500  2.308270E-02  1.139101E-01  2.367428E-01  5.906612E-01
    14.1000  2.436244E-02  1.097785E-01  2.342474E-01  6.229380E-01
    14.5500  2.639122E-02  1.059788E-01  2.298683E-01  6.427466E-01
    15.0000  2.861291E-02  1.030914E-01  2.271608E-01  6.406657E-01
