#  Fermi level (eV):  -8.758
#  Charge transfer :  -0.236
#    Electron counts for each orbital momentum:
#       0      1.785
#       1      4.351
#       2      0.101
#       3      0.000
#  Number of atoms in cluster: 113
#  Lorentzian broadening with HWHH     0.1000 eV
# -----------------------------------------------------------------------
#      e        sDOS           pDOS          dDOS          fDOS    @#
   -30.0000  5.673230E-02  8.596143E-04  1.417831E-04  6.617029E-05
   -29.5500  2.903926E-01  1.477358E-03  2.958479E-04  1.087236E-04
   -29.1000  8.815364E-01  2.417412E-03  8.013579E-04  2.742655E-04
   -28.6500  1.116674E+00  3.237563E-03  8.286205E-04  3.654373E-04
   -28.2000  8.802858E-01  2.226210E-03  5.115468E-04  1.922659E-04
   -27.7500  8.193509E-02  1.297715E-03  1.773595E-04  7.794005E-05
   -27.3000  3.131959E-02  1.386410E-03  1.663971E-04  7.101055E-05
   -26.8500  1.815288E-02  1.688012E-03  1.885974E-04  7.372698E-05
   -26.4000  1.442779E-02  2.534956E-03  2.670125E-04  8.752994E-05
   -25.9500  2.249438E-02  8.541901E-03  7.994481E-04  1.904125E-04
   -25.5000  1.038756E-01  4.675275E-02  5.212718E-03  8.525229E-04
   -25.0500  1.538044E-01  1.420230E-02  2.061495E-03  4.804970E-04
   -24.6000  4.166101E-03  3.016326E-03  2.822042E-03  6.237084E-03
   -24.1500  6.725273E-03  2.438293E-03  2.185350E-04  8.136352E-05
   -23.7000  4.195778E-03  2.335096E-03  1.856057E-04  7.564081E-05
   -23.2500  3.028300E-03  2.433890E-03  1.743745E-04  7.421243E-05
   -22.8000  2.356604E-03  2.640210E-03  1.713384E-04  7.445809E-05
   -22.3500  1.919266E-03  2.934793E-03  1.723954E-04  7.563539E-05
   -21.9000  1.612034E-03  3.323451E-03  1.759808E-04  7.745065E-05
   -21.4500  1.385580E-03  3.831140E-03  1.815887E-04  7.991391E-05
   -21.0000 -2.732851E-03  6.631876E-04  1.340417E-03 -1.274272E-04
   -20.5500  1.079512E-03  5.399919E-03  1.988871E-04  8.724911E-05
   -20.1000  9.682071E-04  6.588433E-03  2.088928E-04  9.075788E-05
   -19.6500  9.585583E-04  9.407892E-03  2.610702E-04  1.384457E-04
   -19.2000  3.584834E-03  8.678326E-03  1.708235E-04  4.338178E-05
   -18.7500  4.684781E-04 -1.515867E-03 -7.716913E-04 -6.231469E-04
   -18.3000  8.822826E-04  3.388940E-02  3.891181E-04  2.149181E-04
   -17.8500  1.242673E-03  1.377838E-01  7.475993E-04  5.062039E-04
   -17.4000  4.337516E-03  7.827684E-01  2.736527E-03  2.928153E-03
   -16.9500  3.917630E-03  6.904156E-01  4.306073E-03  3.720272E-03
   -16.5000  1.274045E-02  3.383491E-01  5.656050E-03  1.818056E-03
   -16.0500  8.932088E-03  6.321602E-01  6.112400E-03  2.586389E-03
   -15.6000  3.968865E-02  1.515005E+00  1.075955E-03  1.061738E-04
   -15.1500  7.759111E-03  1.233545E+00  7.016676E-03  1.691870E-03
   -14.7000  5.615915E-03  8.065302E-01  4.879327E-03  1.339689E-03
   -14.2500  4.607917E-03  5.777598E-01  4.561042E-03  1.107986E-03
   -13.8000  8.182772E-03  1.163353E+00  1.987173E-03  1.312759E-04
   -13.3500  5.226581E-03  7.178914E-01  5.285263E-03  1.727547E-03
   -12.9000  2.135583E-03  3.675800E-01  4.521778E-03  1.344932E-03
   -12.4500  1.628954E-03  9.992295E-02  5.180831E-03  1.462124E-03
   -12.0000  1.878181E-03  8.719622E-02  1.084663E-02  2.264378E-03
   -11.5500  2.416779E-03  1.426623E-01  1.789096E-02  3.214364E-03
   -11.1000  2.793461E-03  1.730860E-01  1.786644E-02  3.416586E-03
   -10.6500  3.878740E-03  1.861770E-01  2.249377E-02  3.836456E-03
   -10.2000  7.777521E-03  2.060971E-01  6.032451E-03  3.135849E-04
    -9.7500  4.750959E-03  1.970070E-01  1.726861E-02  3.715167E-03
    -9.3000  4.187714E-03  3.111193E-01  1.804077E-02  7.878432E-03
    -8.8500  3.949286E-03  1.805844E-01  1.183992E-02  6.007114E-03
    -8.4000  8.736989E-03  1.271332E-01  9.217052E-03  5.930932E-04
    -7.9500  5.655980E-03  6.206465E-02  5.383349E-03  1.509392E-03
    -7.5000  1.009308E-02  4.749577E-02  6.345058E-03  1.605458E-03
    -7.0500  2.049742E-02  5.042826E-02  9.577184E-03  2.142321E-03
    -6.6000  3.223713E-02  6.789395E-02  1.521320E-02  3.095420E-03
    -6.1500  4.330220E-02  7.102429E-02  2.098397E-02  4.334641E-03
    -5.7000  5.966454E-02  8.255092E-02  2.463833E-02  4.931943E-03
    -5.2500  5.727468E-02  1.026444E-01  2.334389E-02  3.812758E-03
    -4.8000  1.244140E-02  9.280415E-02  1.771039E-02  1.318157E-03
    -4.3500  3.437128E-02  1.431376E-01  2.434993E-02  3.968667E-03
    -3.9000  2.131403E-02  1.556275E-01  2.518583E-02  4.842307E-03
    -3.4500  1.569565E-02  1.689957E-01  2.407186E-02  5.525514E-03
    -3.0000  1.201131E-02  8.511944E-02  2.237667E-02  2.051441E-03
    -2.5500  1.196609E-02  1.322766E-01  2.040724E-02  3.888547E-03
    -2.1000  1.439365E-02  1.382872E-01  2.242527E-02  3.873443E-03
    -1.6500  1.366485E-02  1.076043E-01  1.716692E-02  3.378979E-03
    -1.2000  1.103058E-02  7.378478E-02  1.597600E-02  2.630905E-03
    -0.7500  1.144438E-02  6.869351E-02  2.105669E-02  2.706413E-03
    -0.3000  1.167427E-02  8.247397E-02  2.800958E-02  3.065533E-03
     0.1500  1.050046E-02  1.038412E-01  3.223655E-02  3.400729E-03
     0.6000  1.228937E-02  6.779471E-02  3.407070E-02  3.730055E-03
     1.0500  7.231955E-03  1.208699E-01  3.319176E-02  4.020291E-03
     1.5000  6.477172E-03  9.297475E-02  2.861514E-02  3.918616E-03
     1.9500  6.660448E-03  6.827630E-02  2.722834E-02  3.640482E-03
     2.4000  1.246795E-02  6.242159E-02  4.060225E-02  4.821276E-03
     2.8500  1.179325E-02  6.968306E-02  3.812091E-02  4.628792E-03
     3.3000  1.349226E-02  7.391696E-02  4.354237E-02  5.318109E-03
     3.7500  1.083140E-02  6.300104E-02  4.267293E-02  5.217183E-03
     4.2000  8.437529E-03  5.370059E-02  4.197983E-02  5.066740E-03
     4.6500  7.409276E-03  5.037737E-02  4.286803E-02  5.124620E-03
     5.1000  7.370183E-03  5.083967E-02  4.545557E-02  5.281011E-03
     5.5500  7.911247E-03  5.288574E-02  4.940627E-02  5.484728E-03
     6.0000  1.288909E-02  5.554233E-02  5.462829E-02  7.543299E-03
     6.4500  8.876491E-03  5.333772E-02  5.813997E-02  6.329573E-03
     6.9000  9.057852E-03  5.001287E-02  6.082086E-02  6.916944E-03
     7.3500  9.220240E-03  4.693260E-02  6.306908E-02  7.551473E-03
     7.8000  1.312416E-02  5.344689E-02  6.193746E-02  9.182282E-03
     8.2500  8.338433E-03  4.326352E-02  6.321704E-02  8.509460E-03
     8.7000  8.137728E-03  4.236220E-02  6.145501E-02  8.930359E-03
     9.1500  8.327200E-03  4.170513E-02  6.014449E-02  9.280543E-03
     9.6000  8.664121E-03  4.128616E-02  6.012573E-02  9.645432E-03
    10.0500  9.044631E-03  4.124952E-02  6.177493E-02  1.013495E-02
    10.5000  9.423110E-03  4.139131E-02  6.530135E-02  1.076603E-02
    10.9500  9.763397E-03  4.171635E-02  7.051003E-02  1.147443E-02
    11.4000  1.362437E-02  5.103662E-02  7.664920E-02  1.302178E-02
    11.8500  1.034921E-02  4.346628E-02  8.385787E-02  1.308188E-02
    12.3000  1.066789E-02  4.424355E-02  9.072327E-02  1.386848E-02
    12.7500  1.127539E-02  4.410922E-02  9.556323E-02  1.442612E-02
    13.2000  1.217381E-02  4.298933E-02  9.652941E-02  1.469670E-02
    13.6500  1.312353E-02  4.170954E-02  9.468836E-02  1.483222E-02
    14.1000  1.395312E-02  4.156662E-02  9.297490E-02  1.507284E-02
    14.5500  1.458486E-02  4.368567E-02  9.282715E-02  1.548824E-02
    15.0000  1.477161E-02  4.702096E-02  9.283997E-02  1.594451E-02
