#  Fermi level (eV):  -7.357
#  Charge transfer :   0.301
#    Electron counts for each orbital momentum:
#       0      0.682
#       1      0.814
#       2      7.193
#       3      0.000
#  Number of atoms in cluster:  99
#  Lorentzian broadening with HWHH     0.1000 eV
# -----------------------------------------------------------------------
#      e        sDOS           pDOS          dDOS          fDOS    @#
   -30.0000  1.214734E-03  1.158621E-03  2.294662E-03  9.183437E-04
   -29.5500  1.991593E-03  1.480820E-03  3.112966E-03  1.034211E-03
   -29.1000  4.104119E-03  2.112045E-03  4.952226E-03  1.266115E-03
   -28.6500  1.552916E-02  3.777779E-03  1.222509E-02  1.883371E-03
   -28.2000  1.138961E-01  1.868625E-02  6.607077E-02  7.358965E-03
   -27.7500  8.986810E-02  3.104000E-02  1.212255E-01  1.223158E-02
   -27.3000  4.492474E-02  7.536178E-02  2.510021E-01  2.831015E-02
   -26.8500  7.156103E-03  2.362197E-01  6.532371E-02  9.005567E-02
   -26.4000  2.521536E-03  1.494330E-02  1.153859E-02  6.134484E-03
   -25.9500  1.504421E-03  5.212543E-03  5.999972E-03  2.490618E-03
   -25.5000  1.169227E-03  3.179226E-03  4.901881E-03  1.829212E-03
   -25.0500  1.626987E-03  4.889836E-03  1.018415E-02  2.933595E-03
   -24.6000  1.139421E-03  7.168829E-03  1.297212E-02  9.039626E-03
   -24.1500  1.431595E-03  2.452482E-03  4.878835E-03  2.081208E-03
   -23.7000  7.288760E-04  1.331872E-03  3.299791E-03  1.117501E-03
   -23.2500  5.968227E-04  1.054069E-03  3.031746E-03  9.084150E-04
   -22.8000  5.566322E-04  9.335062E-04  3.033247E-03  8.240967E-04
   -22.3500  5.523961E-04  8.744599E-04  3.159816E-03  7.837464E-04
   -21.9000  5.709332E-04  8.495784E-04  3.380213E-03  7.662450E-04
   -21.4500  6.083788E-04  8.454912E-04  3.670716E-03  7.537738E-04
   -21.0000 -9.815882E-01 -4.081118E-01 -2.369023E-01 -2.770181E-01
   -20.5500  7.578808E-04  9.067149E-04  4.641794E-03  7.900968E-04
   -20.1000  8.749627E-04  9.509552E-04  5.236718E-03  7.714353E-04
   -19.6500  1.062694E-03  1.050349E-03  6.298495E-03  8.462602E-04
   -19.2000 -4.702659E-02  1.996897E-02  7.692219E-03  6.695428E-04
   -18.7500  1.592361E-03  1.109275E-03  7.155884E-03  3.008896E-04
   -18.3000  3.574468E-03  2.843914E-03  2.697274E-02  4.322970E-03
   -17.8500 -7.960539E-03 -5.642783E-02 -1.312346E-01 -1.939674E-01
   -17.4000  6.765403E-03  2.407235E-03  3.342613E-02  9.286908E-04
   -16.9500  2.835295E-02  1.082385E-02  1.727598E-01  3.003788E-03
   -16.5000  3.099947E-01  1.264081E-02  6.854354E-01  7.327894E-03
   -16.0500  1.339537E-01  2.986484E-02  5.183685E-01  8.861659E-03
   -15.6000  1.324026E-02  6.170860E-03  5.372910E-02  6.247243E-04
   -15.1500  2.053137E-02  1.964756E-01  5.027101E-01  6.116144E-02
   -14.7000  3.143520E-02  9.671235E-02  7.080527E-01  3.847241E-02
   -14.2500  4.703651E-02  9.524271E-02  5.378871E-01  3.020346E-02
   -13.8000  1.301604E-01  2.308698E-02  1.622611E-01  8.106180E-04
   -13.3500  4.494239E-02  1.142359E-01  4.505931E-01  5.138328E-02
   -12.9000  6.429324E-02  1.517100E-01  5.644390E-01  7.997390E-02
   -12.4500  4.382398E-02  1.393464E-01  3.873498E-01  8.589035E-02
   -12.0000  3.300449E-02  8.107635E-02  3.223546E-01  9.040469E-02
   -11.5500  3.689569E-02  5.598758E-02  3.245048E-01  5.349504E-02
   -11.1000  4.718153E-02  2.996389E-02  4.780620E-01  1.824981E-02
   -10.6500  4.569786E-02  2.501241E-02  8.993181E-01  1.017123E-02
   -10.2000  7.411925E-02  4.936566E-02  8.638695E-01  3.214354E-03
    -9.7500  2.905576E-02  2.421511E-02  9.796586E-01  8.831296E-03
    -9.3000  4.912998E-02  2.282288E-02  6.895779E-01  2.139048E-02
    -8.8500  3.037166E-02  2.983382E-02  4.652201E-01  4.221775E-02
    -8.4000  5.353956E-02  1.011703E-01  3.965636E-01  4.952821E-03
    -7.9500  1.037063E-02  1.207105E-02  1.401742E+00  1.245893E-02
    -7.5000  8.461012E-03  1.849445E-02  1.458609E+00  1.396777E-02
    -7.0500  8.067338E-03  2.922151E-02  7.029415E-01  1.410411E-02
    -6.6000  7.492525E-03  3.764411E-02  2.894170E-01  1.661011E-02
    -6.1500  7.256056E-03  3.359290E-02  2.201538E-01  1.988931E-02
    -5.7000  6.916240E-03  2.731151E-02  2.775653E-01  2.027471E-02
    -5.2500  7.201699E-03  2.613303E-02  3.885043E-01  1.758969E-02
    -4.8000  4.597665E-02  1.114025E-01  1.613103E-01  1.414724E-02
    -4.3500  1.539863E-02  4.508661E-02  2.581942E-01  1.929746E-02
    -3.9000  3.677080E-02  5.385661E-02  3.168008E-01  2.124071E-02
    -3.4500  8.067306E-02  4.089353E-02  5.621891E-01  2.525037E-02
    -3.0000  4.731911E-02  1.011507E-01  1.512752E-01  2.411265E-02
    -2.5500  2.434348E-02  4.238149E-02  1.828800E-01  2.444405E-02
    -2.1000  1.899139E-02  5.876439E-02  1.388312E-01  2.494452E-02
    -1.6500  1.980087E-02  8.137527E-02  1.538639E-01  3.934893E-02
    -1.2000  1.932896E-02  6.370520E-02  1.659872E-01  4.839084E-02
    -0.7500  2.754612E-02  4.964601E-02  1.720899E-01  3.628893E-02
    -0.3000  4.451136E-02  5.250841E-02  3.457375E-01  3.022798E-02
     0.1500  6.685033E-02  5.848888E-02  2.463561E-01  2.822352E-02
     0.6000  4.037429E-02  1.087069E-01  1.115891E-01  4.635139E-02
     1.0500  5.928279E-02  9.910039E-02  9.301568E-02  3.015731E-02
     1.5000  6.006231E-02  1.171095E-01  8.695373E-02  3.208804E-02
     1.9500  7.074265E-02  1.164103E-01  9.808643E-02  3.440735E-02
     2.4000  3.742952E-02  1.103983E-01  1.025243E-01  6.118479E-02
     2.8500  9.022563E-02  7.898485E-02  1.291158E-01  4.326103E-02
     3.3000  7.992929E-02  7.213129E-02  9.914388E-02  4.991571E-02
     3.7500  6.762116E-02  7.952554E-02  7.949524E-02  6.097916E-02
     4.2000  5.221202E-02  9.390283E-02  6.508147E-02  7.697648E-02
     4.6500  4.059927E-02  1.034233E-01  5.626252E-02  8.894351E-02
     5.1000  3.516383E-02  1.027311E-01  5.166609E-02  9.251470E-02
     5.5500  3.421452E-02  9.560138E-02  4.960634E-02  9.180637E-02
     6.0000  3.242451E-02  1.105801E-01  9.439759E-02  9.880649E-02
     6.4500  4.091373E-02  7.417183E-02  5.551663E-02  8.989937E-02
     6.9000  4.795590E-02  6.700968E-02  6.665155E-02  9.506940E-02
     7.3500  5.684956E-02  6.645342E-02  8.250424E-02  1.068469E-01
     7.8000  3.030538E-02  1.094238E-01  9.341533E-02  1.215245E-01
     8.2500  6.889451E-02  7.007275E-02  9.381228E-02  1.312085E-01
     8.7000  8.043150E-02  7.240111E-02  8.485503E-02  1.493026E-01
     9.1500  1.062251E-01  8.207973E-02  7.622733E-02  1.753722E-01
     9.6000  9.178531E-02  1.005354E-01  6.970351E-02  1.854283E-01
    10.0500  5.256393E-02  1.239892E-01  6.689916E-02  1.760906E-01
    10.5000  3.562161E-02  1.411266E-01  6.729138E-02  1.591290E-01
    10.9500  2.780110E-02  1.425928E-01  6.813630E-02  1.409909E-01
    11.4000  2.671102E-02  1.053777E-01  9.505444E-02  1.734541E-01
    11.8500  2.096454E-02  1.384524E-01  7.722419E-02  1.443056E-01
    12.3000  1.952976E-02  1.401043E-01  8.373071E-02  1.532998E-01
    12.7500  1.883470E-02  1.416283E-01  8.865910E-02  1.625301E-01
    13.2000  1.870006E-02  1.425478E-01  9.071679E-02  1.768085E-01
    13.6500  1.902717E-02  1.416851E-01  9.029193E-02  1.875632E-01
    14.1000  1.975233E-02  1.376762E-01  8.861571E-02  1.933282E-01
    14.5500  2.071906E-02  1.294299E-01  8.596278E-02  1.973689E-01
    15.0000  2.132360E-02  1.172161E-01  8.127350E-02  1.981776E-01
