#  Fermi level (eV):  -7.429
#  Charge transfer :   0.263
#    Electron counts for each orbital momentum:
#       0      0.305
#       1      6.415
#       2      1.041
#       3      0.000
#  Number of atoms in cluster: 116
#  Lorentzian broadening with HWHH     0.1000 eV
# -----------------------------------------------------------------------
#      e        sDOS           pDOS          dDOS          fDOS    @#
   -30.0000  7.634381E-04  8.712298E-03  9.670440E-04  5.241507E-04
   -29.5500  9.175866E-04  1.166001E-02  1.186939E-03  6.285343E-04
   -29.1000  1.414305E-03  1.806871E-02  1.663412E-03  8.517372E-04
   -28.6500  4.928156E-03  4.795088E-02  3.497364E-03  1.709751E-03
   -28.2000  1.586710E-02  2.128830E-01  1.909970E-02  7.508139E-03
   -27.7500  1.210903E-02  2.100660E-01  2.443028E-02  1.090497E-02
   -27.3000  1.880201E-02  4.483836E-01  8.453864E-02  4.871221E-02
   -26.8500  7.201649E-03  9.188408E-02  1.825103E-02  1.040466E-02
   -26.4000  1.465822E-03  5.810708E-02  3.520570E-03  1.969407E-03
   -25.9500  8.682368E-04  8.325916E-02  2.034003E-03  1.101344E-03
   -25.5000  7.028865E-04  1.667864E-01  1.656040E-03  8.734281E-04
   -25.0500  7.410220E-04  5.864065E-01  1.791447E-03  9.274909E-04
   -24.6000  2.650155E-03  7.659232E+00  6.168470E-03  3.150667E-03
   -24.1500  4.435697E-03  4.757398E+00  1.421329E-02  6.706886E-03
   -23.7000  1.020280E-03  5.355586E-01  2.406459E-03  1.143017E-03
   -23.2500  5.585783E-04  1.506580E-01  1.486910E-03  7.149132E-04
   -22.8000  4.798484E-04  7.306209E-02  1.348695E-03  6.401214E-04
   -22.3500  4.560267E-04  4.364787E-02  1.333893E-03  6.216662E-04
   -21.9000  4.516212E-04  2.923358E-02  1.365153E-03  6.242348E-04
   -21.4500  4.582637E-04  2.107429E-02  1.422306E-03  6.367906E-04
   -21.0000  4.739602E-04  1.601022E-02  1.501621E-03  6.576703E-04
   -20.5500  4.990916E-04  1.266184E-02  1.604710E-03  6.872304E-04
   -20.1000  5.357237E-04  1.034905E-02  1.737223E-03  7.276179E-04
   -19.6500  5.869773E-04  8.699160E-03  1.900188E-03  7.727686E-04
   -19.2000  6.586482E-04  7.504527E-03  2.105282E-03  8.227604E-04
   -18.7500  7.590339E-04  6.627212E-03  2.342862E-03  8.454405E-04
   -18.3000  1.007009E-03  6.419474E-03  3.357504E-03  1.504745E-03
   -17.8500 -6.724560E-04 -4.658003E-03 -2.039838E-02 -2.399919E-02
   -17.4000  1.419970E-03  5.474922E-03  4.754051E-03  1.490279E-03
   -16.9500  7.288474E-03  1.183418E-02  2.658235E-02  6.128578E-03
   -16.5000  1.865023E-02  2.741427E-02  5.204316E-02  2.119236E-02
   -16.0500  1.583331E-02  4.286048E-02  6.178337E-02  1.765985E-02
   -15.6000  7.055076E-02  5.693324E-02  6.390044E-02  2.005462E-02
   -15.1500  1.300601E-01  7.883041E-02  1.040343E-01  3.205328E-02
   -14.7000  7.633634E-02  1.074769E-01  1.396274E-01  3.605243E-02
   -14.2500  4.538566E-02  1.468302E-01  1.572119E-01  4.088726E-02
   -13.8000  3.233731E-02  1.171445E-01  1.380832E-01  4.297778E-02
   -13.3500  2.554691E-02  1.005114E-01  1.443150E-01  4.179636E-02
   -12.9000  3.059151E-02  8.846828E-02  1.621406E-01  5.040502E-02
   -12.4500  2.237890E-02  7.413885E-02  1.447296E-01  6.397602E-02
   -12.0000  1.532074E-02  5.991440E-02  1.090710E-01  5.359905E-02
   -11.5500  1.333410E-02  4.134820E-02  7.206154E-02  2.676327E-02
   -11.1000  1.253201E-02  4.219966E-02  8.314716E-02  2.830120E-02
   -10.6500  1.111568E-02  3.534251E-02  7.863195E-02  2.854695E-02
   -10.2000  1.378970E-02  4.027791E-02  1.136152E-01  3.912727E-02
    -9.7500  1.265838E-02  3.494293E-02  1.044491E-01  4.053264E-02
    -9.3000  8.504493E-03  2.484114E-02  6.821075E-02  3.352758E-02
    -8.8500  6.867180E-03  1.702197E-02  5.745601E-02  2.725191E-02
    -8.4000  6.751596E-03  1.703658E-02  6.742229E-02  2.553898E-02
    -7.9500  7.448961E-03  1.915767E-02  8.280665E-02  2.641225E-02
    -7.5000  1.007140E-02  2.083770E-02  9.293355E-02  2.999722E-02
    -7.0500  1.204558E-02  2.464625E-02  1.076818E-01  2.307097E-02
    -6.6000  1.117568E-02  2.067096E-02  9.927967E-02  1.865646E-02
    -6.1500  1.009686E-02  1.694242E-02  1.039526E-01  1.529636E-02
    -5.7000  1.258737E-02  1.838716E-02  1.457501E-01  1.701577E-02
    -5.2500  1.849387E-02  2.353222E-02  2.318517E-01  2.078515E-02
    -4.8000  3.266930E-02  3.167557E-02  3.710370E-01  2.457130E-02
    -4.3500  5.850022E-02  4.258420E-02  5.411370E-01  2.892527E-02
    -3.9000  8.967854E-02  5.314548E-02  7.737652E-01  3.722646E-02
    -3.4500  1.018349E-01  6.277498E-02  1.028317E+00  4.304052E-02
    -3.0000  9.397648E-02  7.168450E-02  1.143517E+00  4.442572E-02
    -2.5500  7.880931E-02  8.314168E-02  1.284922E+00  4.914515E-02
    -2.1000  7.439059E-02  8.737706E-02  1.413411E+00  5.444084E-02
    -1.6500  8.174121E-02  8.733953E-02  1.519790E+00  5.841335E-02
    -1.2000  8.321155E-02  9.883239E-02  1.568345E+00  5.961226E-02
    -0.7500  8.540645E-02  1.005982E-01  1.356291E+00  5.853884E-02
    -0.3000  9.660640E-02  9.869308E-02  9.169851E-01  5.813552E-02
     0.1500  1.020853E-01  1.000422E-01  6.864281E-01  6.196964E-02
     0.6000  1.049371E-01  1.095940E-01  5.912230E-01  6.955602E-02
     1.0500  1.148670E-01  1.159274E-01  5.389906E-01  7.681929E-02
     1.5000  1.248532E-01  1.224032E-01  4.883046E-01  8.687835E-02
     1.9500  1.231145E-01  1.351313E-01  4.350990E-01  1.053066E-01
     2.4000  1.099008E-01  1.536385E-01  3.781990E-01  1.302176E-01
     2.8500  9.244689E-02  1.791297E-01  3.434753E-01  1.552963E-01
     3.3000  8.098360E-02  2.041610E-01  3.236670E-01  1.702653E-01
     3.7500  7.393242E-02  2.190121E-01  3.031386E-01  1.815073E-01
     4.2000  6.414683E-02  2.252546E-01  2.807530E-01  1.884714E-01
     4.6500  5.583459E-02  2.315553E-01  2.615709E-01  1.975511E-01
     5.1000  5.288113E-02  2.380081E-01  2.385405E-01  2.096076E-01
     5.5500  5.265552E-02  2.406879E-01  2.152235E-01  2.244656E-01
     6.0000  5.113121E-02  2.429770E-01  1.966459E-01  2.444766E-01
     6.4500  4.737333E-02  2.454828E-01  1.838350E-01  2.712148E-01
     6.9000  4.243996E-02  2.435902E-01  1.753373E-01  3.051290E-01
     7.3500  3.768064E-02  2.364327E-01  1.697479E-01  3.351249E-01
     7.8000  3.390780E-02  2.246205E-01  1.694807E-01  3.539635E-01
     8.2500  3.168327E-02  2.089387E-01  1.738206E-01  3.663394E-01
     8.7000  3.111991E-02  1.941073E-01  1.802091E-01  3.757807E-01
     9.1500  3.119785E-02  1.819710E-01  1.861873E-01  3.859575E-01
     9.6000  3.073678E-02  1.698068E-01  1.920076E-01  3.974582E-01
    10.0500  2.974171E-02  1.582177E-01  1.980612E-01  4.120652E-01
    10.5000  2.910858E-02  1.480392E-01  2.054366E-01  4.327162E-01
    10.9500  2.891574E-02  1.398355E-01  2.160360E-01  4.587554E-01
    11.4000  2.886775E-02  1.333054E-01  2.271993E-01  4.816519E-01
    11.8500  2.900979E-02  1.278995E-01  2.340789E-01  4.942139E-01
    12.3000  2.911226E-02  1.238978E-01  2.345765E-01  4.965641E-01
    12.7500  2.903088E-02  1.210496E-01  2.315675E-01  4.923733E-01
    13.2000  2.871816E-02  1.185521E-01  2.293824E-01  4.850034E-01
    13.6500  2.798846E-02  1.156693E-01  2.294560E-01  4.756166E-01
    14.1000  2.712942E-02  1.122749E-01  2.309560E-01  4.666164E-01
    14.5500  2.652987E-02  1.088707E-01  2.324005E-01  4.588844E-01
    15.0000  2.623960E-02  1.060300E-01  2.334357E-01  4.511491E-01
