#  Fermi level (eV):  -6.986
#  Charge transfer :  -0.095
#    Electron counts for each orbital momentum:
#       0      1.779
#       1      4.191
#       2      0.124
#       3      0.000
#  Number of atoms in cluster: 125
#  Lorentzian broadening with HWHH     0.1000 eV
# -----------------------------------------------------------------------
#      e        sDOS           pDOS          dDOS          fDOS    @#
   -30.0000  9.484142E-03  6.444440E-04  9.959903E-05  5.318475E-05
   -29.5500  1.554451E-02  6.949778E-04  1.038324E-04  5.497756E-05
   -29.1000  3.845345E-02  7.886202E-04  1.123857E-04  5.804638E-05
   -28.6500  1.210480E-01  1.366519E-03  1.473554E-04  6.656136E-05
   -28.2000  2.790292E-01  1.459101E-03  2.652262E-04  9.989171E-05
   -27.7500  6.123001E-01  2.579064E-03  4.851393E-04  2.986278E-04
   -27.3000  1.888474E+00  2.924405E-03  9.086508E-04  6.404320E-04
   -26.8500  4.479521E-01  1.465184E-03  2.743584E-04  1.578611E-04
   -26.4000  6.985395E-02  1.110479E-03  1.415387E-04  7.532045E-05
   -25.9500  2.912079E-02  1.139525E-03  1.295977E-04  6.618806E-05
   -25.5000  1.626198E-02  1.223595E-03  1.327169E-04  6.666405E-05
   -25.0500  1.103465E-02  1.468619E-03  1.638132E-04  7.744758E-05
   -24.6000  9.975757E-03  1.776191E-03  1.640555E-04  7.496954E-05
   -24.1500  5.468360E-03  1.550967E-03  1.350258E-04  6.422323E-05
   -23.7000  4.135086E-03  1.681898E-03  1.366094E-04  6.439108E-05
   -23.2500  3.273150E-03  1.851835E-03  1.401998E-04  6.529047E-05
   -22.8000  2.665742E-03  2.056777E-03  1.446282E-04  6.649500E-05
   -22.3500  2.219305E-03  2.303393E-03  1.497311E-04  6.791761E-05
   -21.9000  1.881996E-03  2.604139E-03  1.556081E-04  6.958888E-05
   -21.4500  1.621525E-03  2.975685E-03  1.623539E-04  7.154598E-05
   -21.0000  1.416422E-03  3.443557E-03  1.700919E-04  7.375337E-05
   -20.5500  1.253993E-03  4.049001E-03  1.792477E-04  7.642355E-05
   -20.1000  1.125461E-03  4.858601E-03  1.904712E-04  7.983996E-05
   -19.6500  1.024620E-03  5.990239E-03  2.048662E-04  8.420952E-05
   -19.2000  9.426049E-04  7.603914E-03  2.205879E-04  8.872824E-05
   -18.7500  9.375578E-04  1.078964E-02  2.687529E-04  1.118061E-04
   -18.3000  1.171942E-03  2.066911E-02  5.387700E-04  3.815543E-04
   -17.8500 -4.706271E-04 -4.417715E-02 -5.246395E-03 -3.014265E-03
   -17.4000  2.119648E-03  1.491783E-01  1.128510E-03  3.903513E-04
   -16.9500  6.185999E-03  3.013139E-01  2.424960E-03  8.283665E-04
   -16.5000  5.103490E-03  5.474518E-01  3.218626E-03  1.476695E-03
   -16.0500  7.741465E-03  5.470449E-01  4.752506E-03  2.029125E-03
   -15.6000  4.537778E-03  5.553257E-01  5.320618E-03  1.944307E-03
   -15.1500  4.757219E-03  1.077263E+00  8.461592E-03  2.195064E-03
   -14.7000  6.726420E-03  6.184475E-01  7.317871E-03  1.661797E-03
   -14.2500  7.806153E-03  4.614790E-01  7.032485E-03  1.532735E-03
   -13.8000  1.064261E-02  4.648644E-01  8.019066E-03  2.053577E-03
   -13.3500  1.552130E-02  7.616466E-01  9.080738E-03  2.066199E-03
   -12.9000  7.755869E-03  7.217312E-01  5.429179E-03  1.218592E-03
   -12.4500  4.558798E-03  9.602119E-01  3.511911E-03  8.471747E-04
   -12.0000  2.509300E-03  3.248341E-01  2.771733E-03  5.699048E-04
   -11.5500  1.848884E-03  1.172717E-01  2.905374E-03  5.919131E-04
   -11.1000  2.023353E-03  7.653748E-02  4.575488E-03  8.373544E-04
   -10.6500  2.908114E-03  7.759644E-02  1.008202E-02  1.642992E-03
   -10.2000  3.994572E-03  1.137494E-01  2.208700E-02  3.280669E-03
    -9.7500  5.132746E-03  1.475242E-01  3.538465E-02  5.468010E-03
    -9.3000  4.859385E-03  1.389788E-01  3.945772E-02  9.329593E-03
    -8.8500  5.492913E-03  2.221360E-01  4.930187E-02  1.903836E-02
    -8.4000  5.528383E-03  2.384046E-01  2.085049E-02  6.985838E-03
    -7.9500  9.288912E-03  2.133793E-01  1.601544E-02  5.849206E-03
    -7.5000  1.680143E-02  1.246284E-01  8.107686E-03  3.152296E-03
    -7.0500  1.464129E-02  5.850431E-02  4.385076E-03  1.518041E-03
    -6.6000  2.004099E-02  4.775534E-02  4.821809E-03  1.777813E-03
    -6.1500  3.995880E-02  5.914762E-02  9.180701E-03  3.973680E-03
    -5.7000  7.878856E-02  1.399669E-01  2.578583E-02  9.894210E-03
    -5.2500  5.064870E-02  1.845697E-01  2.433959E-02  6.950487E-03
    -4.8000  3.332603E-02  2.406033E-01  2.659448E-02  5.585677E-03
    -4.3500  2.828074E-02  2.337368E-01  2.641869E-02  5.147254E-03
    -3.9000  1.690325E-02  2.062590E-01  2.091113E-02  4.103875E-03
    -3.4500  1.495977E-02  1.696002E-01  1.519844E-02  2.643329E-03
    -3.0000  1.858608E-02  1.342439E-01  1.354961E-02  2.048852E-03
    -2.5500  2.177969E-02  1.160088E-01  1.276225E-02  1.746695E-03
    -2.1000  1.988120E-02  1.167505E-01  1.334655E-02  1.838617E-03
    -1.6500  1.641557E-02  1.014339E-01  1.403123E-02  1.836525E-03
    -1.2000  1.483973E-02  8.800674E-02  1.471921E-02  1.791360E-03
    -0.7500  1.507560E-02  8.778291E-02  1.590630E-02  1.852507E-03
    -0.3000  1.643398E-02  9.612999E-02  1.797238E-02  2.000652E-03
     0.1500  1.824338E-02  1.053521E-01  2.069891E-02  2.336456E-03
     0.6000  1.787283E-02  1.107918E-01  2.310776E-02  2.820123E-03
     1.0500  1.488233E-02  1.164147E-01  2.519785E-02  3.356453E-03
     1.5000  1.205391E-02  1.165048E-01  2.687128E-02  3.624954E-03
     1.9500  1.050428E-02  1.092977E-01  2.978516E-02  3.472917E-03
     2.4000  9.404116E-03  9.092290E-02  3.335717E-02  3.470827E-03
     2.8500  8.637398E-03  8.314048E-02  3.601423E-02  3.699096E-03
     3.3000  7.912443E-03  9.065312E-02  3.742420E-02  4.160363E-03
     3.7500  7.352883E-03  8.942423E-02  3.741848E-02  4.546137E-03
     4.2000  7.096882E-03  8.243416E-02  3.806961E-02  4.824023E-03
     4.6500  6.593258E-03  7.669537E-02  4.019992E-02  5.079456E-03
     5.1000  6.168856E-03  6.919099E-02  4.363200E-02  5.287202E-03
     5.5500  5.923040E-03  6.005928E-02  4.736475E-02  5.499049E-03
     6.0000  5.565673E-03  5.130225E-02  4.894678E-02  5.659191E-03
     6.4500  5.136204E-03  4.509117E-02  4.829278E-02  5.720039E-03
     6.9000  4.911604E-03  4.169613E-02  4.794821E-02  5.847887E-03
     7.3500  4.993985E-03  4.064062E-02  4.862512E-02  6.163242E-03
     7.8000  5.434879E-03  4.152468E-02  5.000095E-02  6.643332E-03
     8.2500  6.204613E-03  4.385477E-02  5.230731E-02  7.209876E-03
     8.7000  7.014373E-03  4.690535E-02  5.583613E-02  7.720073E-03
     9.1500  7.632568E-03  5.019370E-02  6.047455E-02  8.166585E-03
     9.6000  8.044650E-03  5.266980E-02  6.347405E-02  8.675989E-03
    10.0500  7.916333E-03  4.878620E-02  6.072168E-02  9.165566E-03
    10.5000  7.608840E-03  4.175045E-02  5.671398E-02  9.373101E-03
    10.9500  7.477615E-03  3.668862E-02  5.460826E-02  9.479069E-03
    11.4000  7.536628E-03  3.361686E-02  5.468570E-02  9.709693E-03
    11.8500  7.785796E-03  3.174629E-02  5.627483E-02  1.008194E-02
    12.3000  8.286784E-03  3.083443E-02  5.866957E-02  1.061871E-02
    12.7500  8.962693E-03  3.065734E-02  6.133899E-02  1.133857E-02
    13.2000  9.371918E-03  3.057955E-02  6.377703E-02  1.222555E-02
    13.6500  9.315466E-03  3.040341E-02  6.570593E-02  1.323819E-02
    14.1000  9.237162E-03  3.041297E-02  6.738370E-02  1.427330E-02
    14.5500  9.451081E-03  3.061440E-02  6.932924E-02  1.513114E-02
    15.0000  1.002756E-02  3.111126E-02  7.190221E-02  1.568306E-02
