#  Fermi level (eV):  -7.380
#  Charge transfer :  -0.229
#    Electron counts for each orbital momentum:
#       0      1.787
#       1      4.334
#       2      0.108
#       3      0.000
#  Number of atoms in cluster: 109
#  Lorentzian broadening with HWHH     0.1000 eV
# -----------------------------------------------------------------------
#      e        sDOS           pDOS          dDOS          fDOS    @#
   -30.0000  8.891693E-03  6.440942E-04  1.074468E-04  5.389161E-05
   -29.5500  1.384628E-02  6.925744E-04  1.156090E-04  5.555669E-05
   -29.1000  2.554007E-02  7.603499E-04  1.322570E-04  5.822009E-05
   -28.6500  7.540747E-02  8.944148E-04  1.944751E-04  6.404898E-05
   -28.2000  5.745690E-01  1.877911E-03  7.852488E-04  9.660874E-05
   -27.7500  8.746904E-01  2.117492E-03  1.311178E-03  3.109371E-04
   -27.3000  1.103487E+00  4.380141E-03  2.122644E-03  3.991076E-04
   -26.8500  1.034987E+00  2.797670E-03  5.302285E-04  1.914867E-04
   -26.4000  8.969306E-02  1.305585E-03  1.877433E-04  8.003584E-05
   -25.9500  3.336707E-02  1.341903E-03  1.641686E-04  7.082505E-05
   -25.5000  1.947111E-02  1.668639E-03  1.805129E-04  7.340823E-05
   -25.0500  1.893754E-02  3.614203E-03  2.963268E-04  1.063781E-04
   -24.6000  1.181628E-01  1.899791E-02  2.082920E-03  3.849597E-04
   -24.1500  3.572392E-02  3.221593E-03  6.763936E-04  1.095865E-04
   -23.7000  8.804911E-03  2.004695E-03  2.194755E-04  7.511216E-05
   -23.2500  5.055515E-03  1.935044E-03  1.719617E-04  7.133406E-05
   -22.8000  3.582260E-03  2.041468E-03  1.605855E-04  7.122176E-05
   -22.3500  2.766387E-03  2.226164E-03  1.585071E-04  7.231851E-05
   -21.9000  2.238699E-03  2.473397E-03  1.602219E-04  7.410962E-05
   -21.4500  1.867334E-03  2.787399E-03  1.640353E-04  7.641123E-05
   -21.0000  1.593233E-03  3.188435E-03  1.695228E-04  7.947890E-05
   -20.5500  1.382493E-03  3.695350E-03  1.762356E-04  8.291990E-05
   -20.1000  1.218949E-03  4.366712E-03  1.847536E-04  8.767263E-05
   -19.6500  1.091408E-03  5.291400E-03  1.955768E-04  9.454084E-05
   -19.2000  9.873243E-04  6.543590E-03  2.080824E-04  1.018927E-04
   -18.7500  8.934814E-04  8.137265E-03  2.167280E-04  1.025680E-04
   -18.3000  9.367706E-04  1.406947E-02  2.851439E-04  1.783276E-04
   -17.8500 -7.958076E-05 -3.612111E-03 -3.523288E-04 -2.812017E-04
   -17.4000  6.921478E-04  1.525277E-02 -4.539613E-04 -4.394861E-04
   -16.9500  1.163797E-03  1.921093E-01  6.593194E-04  1.243112E-03
   -16.5000  3.373687E-03  8.330243E-01  2.994655E-03  6.002695E-03
   -16.0500  3.692026E-03  4.661151E-01  2.788761E-03  3.126328E-03
   -15.6000  5.865013E-03  2.479946E-01  4.312364E-03  1.236748E-03
   -15.1500  2.712769E-02  5.330146E-01  1.348336E-02  2.690785E-03
   -14.7000  8.414266E-03  5.329900E-01  8.334526E-03  2.807957E-03
   -14.2500  4.973462E-03  5.986210E-01  5.610985E-03  1.919318E-03
   -13.8000  5.492954E-03  9.159075E-01  4.939390E-03  1.615733E-03
   -13.3500  6.559208E-03  9.437797E-01  4.277342E-03  1.549457E-03
   -12.9000  6.292933E-03  5.754811E-01  6.154614E-03  2.231138E-03
   -12.4500  3.680926E-03  7.263803E-01  4.420027E-03  2.193628E-03
   -12.0000  5.771808E-03  3.782307E-01  4.851836E-03  1.386741E-03
   -11.5500  3.139880E-03  2.263643E-01  6.288395E-03  1.140016E-03
   -11.1000  1.611649E-03  3.851958E-01  1.490051E-02  1.385106E-03
   -10.6500  1.559261E-03  9.924973E-02  2.979029E-02  1.776960E-03
   -10.2000  2.185175E-03  2.114573E-01  1.551608E-02  2.737137E-03
    -9.7500  3.638133E-03  1.273165E-01  1.104156E-02  1.977318E-03
    -9.3000  1.366319E-02  1.641501E-01  1.861491E-02  2.562581E-03
    -8.8500  7.773382E-03  1.399496E-01  2.840897E-02  3.372694E-03
    -8.4000  4.246961E-03  1.346070E-01  1.437636E-02  3.507164E-03
    -7.9500  4.602389E-03  4.220903E-01  1.271788E-02  1.370929E-02
    -7.5000  5.979165E-03  3.306852E-01  2.331164E-02  1.155264E-02
    -7.0500  6.569333E-03  1.932291E-01  8.002344E-03  1.054771E-02
    -6.6000  9.681264E-03  1.010222E-01  7.530553E-03  2.809168E-03
    -6.1500  1.744995E-02  6.898979E-02  9.316048E-03  1.678695E-03
    -5.7000  2.984931E-02  5.782307E-02  1.238234E-02  1.633388E-03
    -5.2500  2.225691E-02  5.195321E-02  1.533521E-02  1.624140E-03
    -4.8000  2.116138E-02  4.636085E-02  2.366584E-02  1.792174E-03
    -4.3500  2.505118E-02  5.112346E-02  2.760311E-02  2.106698E-03
    -3.9000  2.836739E-02  7.384601E-02  2.070324E-02  3.369174E-03
    -3.4500  3.946193E-02  1.237276E-01  2.209092E-02  4.588557E-03
    -3.0000  4.505545E-02  1.283716E-01  2.688542E-02  3.665196E-03
    -2.5500  3.345564E-02  9.796133E-02  2.504740E-02  2.830049E-03
    -2.1000  2.337450E-02  8.893066E-02  2.237806E-02  2.713071E-03
    -1.6500  1.912594E-02  1.086128E-01  2.696646E-02  3.529495E-03
    -1.2000  1.565761E-02  1.560073E-01  2.951944E-02  4.774489E-03
    -0.7500  1.174597E-02  1.531238E-01  1.857272E-02  6.020785E-03
    -0.3000  1.261238E-02  1.682605E-01  1.771306E-02  8.463702E-03
     0.1500  1.665019E-02  8.995011E-02  2.111312E-02  4.266711E-03
     0.6000  1.627759E-02  7.075843E-02  2.285905E-02  3.086268E-03
     1.0500  1.190451E-02  6.919857E-02  2.139448E-02  2.972472E-03
     1.5000  1.020823E-02  7.488603E-02  2.262430E-02  3.205262E-03
     1.9500  1.044690E-02  8.802474E-02  2.414711E-02  3.653033E-03
     2.4000  1.228037E-02  9.951196E-02  2.485614E-02  3.874933E-03
     2.8500  1.201113E-02  8.867504E-02  2.527872E-02  3.207851E-03
     3.3000  1.134435E-02  8.138430E-02  2.596028E-02  2.867224E-03
     3.7500  1.274075E-02  8.322406E-02  2.997154E-02  2.967691E-03
     4.2000  1.475227E-02  7.454624E-02  3.556431E-02  3.344556E-03
     4.6500  1.456649E-02  6.318103E-02  3.777959E-02  3.794007E-03
     5.1000  1.229853E-02  5.725083E-02  3.681082E-02  4.143248E-03
     5.5500  1.015614E-02  5.339587E-02  3.605703E-02  4.364979E-03
     6.0000  8.781398E-03  4.922524E-02  3.651393E-02  4.528526E-03
     6.4500  8.225534E-03  4.657187E-02  3.834118E-02  4.790073E-03
     6.9000  8.858132E-03  4.721953E-02  4.296163E-02  5.299969E-03
     7.3500  1.136705E-02  5.151486E-02  5.150328E-02  6.023866E-03
     7.8000  1.346776E-02  5.777985E-02  6.061953E-02  6.673711E-03
     8.2500  1.213380E-02  6.376389E-02  6.613777E-02  7.076304E-03
     8.7000  1.025023E-02  7.136267E-02  6.873779E-02  7.542014E-03
     9.1500  9.072185E-03  8.136325E-02  7.470417E-02  8.638068E-03
     9.6000  8.570503E-03  7.867680E-02  8.225645E-02  9.798131E-03
    10.0500  9.645653E-03  6.352202E-02  8.779840E-02  9.435356E-03
    10.5000  1.283095E-02  5.637787E-02  9.632398E-02  9.192432E-03
    10.9500  1.043794E-02  5.351259E-02  8.234276E-02  9.153020E-03
    11.4000  8.036298E-03  5.633778E-02  7.073854E-02  9.394203E-03
    11.8500  7.133562E-03  7.424596E-02  6.958484E-02  1.024949E-02
    12.3000  6.824512E-03  6.143700E-02  7.591870E-02  1.101617E-02
    12.7500  6.820699E-03  4.987326E-02  7.744136E-02  1.198820E-02
    13.2000  7.231505E-03  4.388138E-02  7.706341E-02  1.324277E-02
    13.6500  8.176620E-03  3.957072E-02  7.818090E-02  1.469392E-02
    14.1000  9.647932E-03  3.723186E-02  7.917670E-02  1.647212E-02
    14.5500  1.122013E-02  3.593427E-02  7.995780E-02  1.815901E-02
    15.0000  1.213209E-02  3.412994E-02  8.013588E-02  1.880438E-02
