#  Fermi level (eV):  -6.875
#  Charge transfer :  -0.243
#    Electron counts for each orbital momentum:
#       0      1.806
#       1      4.361
#       2      0.080
#       3      0.000
#  Number of atoms in cluster: 142
#  Lorentzian broadening with HWHH     0.1000 eV
# -----------------------------------------------------------------------
#      e        sDOS           pDOS          dDOS          fDOS    @#
   -30.0000  9.270398E-03  6.582341E-04  1.053000E-04  5.589822E-05
   -29.5500  1.490731E-02  7.138894E-04  1.096493E-04  5.731589E-05
   -29.1000  3.203174E-02  8.177882E-04  1.171805E-04  5.959112E-05
   -28.6500  1.849495E-01  1.491330E-03  1.491018E-04  6.676976E-05
   -28.2000  3.159848E-01  2.004861E-03  2.249539E-04  9.279081E-05
   -27.7500  8.870560E-01  3.239028E-03  4.596639E-04  2.066847E-04
   -27.3000  1.209685E+00  3.996370E-03  8.060807E-04  3.489560E-04
   -26.8500  7.030407E-01  1.735454E-03  3.437026E-04  1.516482E-04
   -26.4000  7.495274E-02  1.343966E-03  1.695981E-04  7.740488E-05
   -25.9500  3.348689E-02  1.651634E-03  1.891853E-04  7.793382E-05
   -25.5000  4.798316E-02  4.105976E-03  4.248288E-04  1.181763E-04
   -25.0500  9.922479E-02  1.493768E-02  1.901602E-03  4.679913E-04
   -24.6000  8.548447E-03  1.792895E-03  7.773576E-04  8.760770E-04
   -24.1500  1.227837E-02  2.339199E-03  2.484824E-04  9.954651E-05
   -23.7000  6.631440E-03  1.904297E-03  1.758735E-04  7.654041E-05
   -23.2500  4.530405E-03  1.905761E-03  1.619289E-04  7.247624E-05
   -22.8000  3.407478E-03  2.022496E-03  1.591487E-04  7.168467E-05
   -22.3500  2.701624E-03  2.203684E-03  1.604976E-04  7.203836E-05
   -21.9000  2.216670E-03  2.440911E-03  1.640112E-04  7.296242E-05
   -21.4500  1.865275E-03  2.740471E-03  1.691054E-04  7.428630E-05
   -21.0000 -9.349947E-04  2.381244E-02  1.280153E-02 -6.342731E-03
   -20.5500  1.398566E-03  3.597296E-03  1.837256E-04  7.799465E-05
   -20.1000  1.240895E-03  4.222230E-03  1.937820E-04  8.048275E-05
   -19.6500  1.118836E-03  5.062550E-03  2.066988E-04  8.361948E-05
   -19.2000  8.092961E-03 -2.739095E-03  3.042667E-04  5.824279E-05
   -18.7500  9.470615E-04  7.892688E-03  2.365090E-04  8.982067E-05
   -18.3000  1.133380E-03  1.305959E-02  4.196783E-04  1.894441E-04
   -17.8500  6.074419E-03  6.578554E-02  3.179279E-03  6.031880E-04
   -17.4000  1.378220E-03  5.282328E-02  7.945245E-04  2.518961E-04
   -16.9500  5.846667E-03  1.990639E-01  2.551114E-03  6.010569E-04
   -16.5000  8.032832E-03  2.543167E-01  4.222763E-03  8.661145E-04
   -16.0500  7.774052E-03  4.047333E-01  4.264861E-03  1.100506E-03
   -15.6000  3.250745E-02  7.457475E-01  7.490094E-04  9.041318E-05
   -15.1500  7.829307E-03  5.966525E-01  6.749315E-03  1.715136E-03
   -14.7000  1.017249E-02  8.329701E-01  6.990249E-03  1.561766E-03
   -14.2500  1.264219E-02  9.182246E-01  7.726483E-03  1.743304E-03
   -13.8000  1.027305E-02  1.723590E+00  1.077358E-03  1.020606E-04
   -13.3500  7.585116E-03  7.477395E-01  7.029380E-03  1.410620E-03
   -12.9000  6.049035E-03  1.044922E+00  5.308957E-03  1.209873E-03
   -12.4500  2.755557E-03  1.217083E+00  3.201619E-03  8.563394E-04
   -12.0000  1.566041E-03  3.792272E-01  2.076475E-03  5.360733E-04
   -11.5500  1.404199E-03  1.266500E-01  2.255660E-03  5.731899E-04
   -11.1000  1.849669E-03  9.113611E-02  4.458669E-03  1.032701E-03
   -10.6500  2.624396E-03  1.177626E-01  9.886925E-03  2.206853E-03
   -10.2000  4.055430E-03  1.986885E-01  4.769484E-03  2.867163E-04
    -9.7500  4.279691E-03  1.606135E-01  2.020670E-02  4.418875E-03
    -9.3000  4.425435E-03  2.136103E-01  1.900370E-02  6.050547E-03
    -8.8500  3.753879E-03  2.619659E-01  1.411879E-02  9.072314E-03
    -8.4000  7.750434E-03  1.238110E-01  7.364771E-03  5.191653E-04
    -7.9500  5.470089E-03  1.173972E-01  8.057118E-03  4.549306E-03
    -7.5000  4.221907E-03  1.032031E-01  3.975136E-03  4.193677E-03
    -7.0500  4.754146E-03  4.052142E-02  3.859564E-03  1.339575E-03
    -6.6000  9.552897E-03  3.792639E-02  6.532881E-03  1.470189E-03
    -6.1500  3.338554E-02  6.827911E-02  2.019387E-02  3.843782E-03
    -5.7000  6.634351E-02  1.720265E-01  4.303229E-02  6.865961E-03
    -5.2500  8.025741E-02  2.337112E-01  4.041315E-02  6.844511E-03
    -4.8000  1.088167E-02  7.350985E-02  1.380238E-02  1.304369E-03
    -4.3500  3.116309E-02  1.431685E-01  2.012663E-02  3.390070E-03
    -3.9000  2.222041E-02  1.085776E-01  1.504885E-02  2.348784E-03
    -3.4500  1.763483E-02  9.596068E-02  1.220959E-02  2.007360E-03
    -3.0000  1.239463E-02  9.354857E-02  2.127236E-02  1.920743E-03
    -2.5500  2.300453E-02  9.413800E-02  1.281780E-02  2.287932E-03
    -2.1000  3.058468E-02  1.392529E-01  1.582051E-02  2.325925E-03
    -1.6500  2.871742E-02  1.318851E-01  1.994459E-02  2.240260E-03
    -1.2000  1.836242E-02  1.193433E-01  2.160038E-02  2.295795E-03
    -0.7500  1.320578E-02  1.399032E-01  2.369470E-02  2.658036E-03
    -0.3000  1.083563E-02  1.087415E-01  2.016412E-02  2.072629E-03
     0.1500  1.078149E-02  1.004308E-01  2.013683E-02  2.047628E-03
     0.6000  1.275872E-02  7.257009E-02  3.334169E-02  3.633042E-03
     1.0500  9.986039E-03  1.383239E-01  3.679240E-02  3.236199E-03
     1.5000  6.755755E-03  1.330270E-01  4.291820E-02  3.247980E-03
     1.9500  5.274892E-03  1.224260E-01  4.138602E-02  3.157802E-03
     2.4000  1.297934E-02  6.626080E-02  4.014319E-02  4.765856E-03
     2.8500  4.952623E-03  9.032563E-02  3.931544E-02  2.973335E-03
     3.3000  5.249604E-03  8.429172E-02  4.352031E-02  3.350749E-03
     3.7500  5.145057E-03  7.544161E-02  4.909576E-02  4.097553E-03
     4.2000  4.598696E-03  6.107336E-02  5.328021E-02  4.824789E-03
     4.6500  4.468591E-03  5.477612E-02  5.715710E-02  5.660094E-03
     5.1000  4.407533E-03  5.115197E-02  5.813512E-02  6.368899E-03
     5.5500  4.290504E-03  4.608042E-02  5.462660E-02  6.610467E-03
     6.0000  1.348200E-02  5.834881E-02  5.483086E-02  7.627787E-03
     6.4500  5.023359E-03  3.917401E-02  5.137965E-02  6.527024E-03
     6.9000  5.640330E-03  3.831651E-02  5.271227E-02  6.511540E-03
     7.3500  6.213721E-03  3.963902E-02  5.589720E-02  6.913435E-03
     7.8000  1.375577E-02  5.598859E-02  6.251192E-02  9.366646E-03
     8.2500  7.255051E-03  4.463268E-02  6.582036E-02  8.306378E-03
     8.7000  7.869551E-03  4.448040E-02  6.807753E-02  8.751599E-03
     9.1500  8.533398E-03  4.401801E-02  6.840682E-02  9.180021E-03
     9.6000  8.929414E-03  4.367401E-02  6.903610E-02  9.741624E-03
    10.0500  8.857294E-03  4.241109E-02  7.032286E-02  1.034483E-02
    10.5000  8.700213E-03  4.052478E-02  7.148991E-02  1.097852E-02
    10.9500  8.799998E-03  3.817274E-02  7.211282E-02  1.186038E-02
    11.4000  1.432701E-02  5.332790E-02  7.799929E-02  1.346655E-02
    11.8500  9.882870E-03  3.406199E-02  7.028203E-02  1.402955E-02
    12.3000  1.084993E-02  3.406835E-02  6.915829E-02  1.486385E-02
    12.7500  1.169426E-02  3.508709E-02  6.991937E-02  1.610732E-02
    13.2000  1.172401E-02  3.677116E-02  7.154618E-02  1.772690E-02
    13.6500  1.121710E-02  3.752041E-02  7.321071E-02  1.911253E-02
    14.1000  1.109751E-02  3.632037E-02  7.478663E-02  1.942935E-02
    14.5500  1.184695E-02  3.498436E-02  7.607534E-02  1.877363E-02
    15.0000  1.323052E-02  3.456173E-02  7.908756E-02  1.821756E-02
