#  Fermi level (eV):  -7.739
#  Charge transfer :  -0.296
#    Electron counts for each orbital momentum:
#       0      1.841
#       1      4.351
#       2      0.104
#       3      0.000
#  Number of atoms in cluster: 104
#  Lorentzian broadening with HWHH     0.1000 eV
# -----------------------------------------------------------------------
#      e        sDOS           pDOS          dDOS          fDOS    @#
   -30.0000  8.641010E-03  6.603375E-04  1.111163E-04  5.920508E-05
   -29.5500  1.329233E-02  7.113326E-04  1.167346E-04  6.129783E-05
   -29.1000  2.373674E-02  7.826580E-04  1.262546E-04  6.489205E-05
   -28.6500  6.022900E-02  9.251221E-04  1.517040E-04  7.443813E-05
   -28.2000  7.134991E-01  2.337696E-03  5.057735E-04  1.995271E-04
   -27.7500  7.744395E-01  3.396605E-03  7.501098E-04  2.863891E-04
   -27.3000  9.356224E-01  3.852816E-03  6.918052E-04  3.565137E-04
   -26.8500  9.438271E-01  3.619772E-03  4.562395E-04  3.713808E-04
   -26.4000  8.131398E-02  1.468760E-03  1.940372E-04  9.614906E-05
   -25.9500  3.161812E-02  1.592788E-03  2.035696E-04  8.565009E-05
   -25.5000  1.982110E-02  2.195179E-03  2.799490E-04  9.667276E-05
   -25.0500  2.141323E-02  5.525269E-03  7.431260E-04  1.737044E-04
   -24.6000  1.048143E-02  1.718428E-03  7.752945E-04  1.101342E-03
   -24.1500  2.986229E-01  3.076025E-02  3.438376E-03  9.256209E-04
   -23.7000  2.100068E-02  3.670022E-03  4.061188E-04  1.318216E-04
   -23.2500  8.361410E-03  2.419647E-03  2.407768E-04  9.275052E-05
   -22.8000  5.041385E-03  2.228667E-03  1.999333E-04  8.390634E-05
   -22.3500  3.567056E-03  2.280870E-03  1.860934E-04  8.137872E-05
   -21.9000  2.736310E-03  2.444122E-03  1.820984E-04  8.118845E-05
   -21.4500  2.202819E-03  2.687595E-03  1.828584E-04  8.217026E-05
   -21.0000  5.717137E-03  7.198189E-02  3.026199E-02 -2.037036E-02
   -20.5500  1.561081E-03  3.428839E-03  1.926532E-04  8.650725E-05
   -20.1000  1.356113E-03  3.970047E-03  2.009022E-04  8.983174E-05
   -19.6500  1.196683E-03  4.675099E-03  2.110751E-04  9.376518E-05
   -19.2000  9.095678E-03 -1.469839E-02  1.424860E-04  5.216908E-05
   -18.7500  9.729441E-04  6.930527E-03  2.392039E-04  1.046804E-04
   -18.3000  9.494171E-04  9.805047E-03  3.163987E-04  1.527130E-04
   -17.8500  1.001478E-03  1.358033E-02  3.656792E-04  2.093497E-04
   -17.4000 -3.032012E-04 -3.146475E-02 -3.088701E-03 -2.399538E-03
   -16.9500  1.140527E-03  3.979156E-02  6.526467E-04  2.792850E-04
   -16.5000  3.671933E-03  1.693808E-01  3.210480E-03  1.493192E-03
   -16.0500  2.272999E-03  3.873099E-01  3.085427E-03  1.995868E-03
   -15.6000  1.270779E-02  3.158302E-01  3.662247E-04  8.489073E-05
   -15.1500  5.698483E-03  9.215155E-01  6.571270E-03  4.232985E-03
   -14.7000  6.097231E-03  6.218667E-01  1.005017E-02  2.976393E-03
   -14.2500  1.342906E-02  8.017867E-01  1.046617E-02  2.378444E-03
   -13.8000  1.318937E-02  1.175660E+00  8.328012E-04  1.031928E-04
   -13.3500  7.756004E-03  7.247699E-01  6.094497E-03  1.782545E-03
   -12.9000  5.103220E-03  4.893944E-01  4.674985E-03  1.365157E-03
   -12.4500  4.636099E-03  6.597457E-01  4.010437E-03  1.099674E-03
   -12.0000  4.140887E-03  6.774439E-01  5.106705E-03  1.543652E-03
   -11.5500  3.329155E-03  2.830513E-01  8.652062E-03  1.349226E-03
   -11.1000  5.423228E-03  1.775260E-01  1.214592E-02  1.908173E-03
   -10.6500  1.157739E-02  2.078696E-01  1.914783E-02  2.746260E-03
   -10.2000  7.847423E-03  3.316858E-01  5.163437E-03  2.573627E-04
    -9.7500  1.618134E-02  3.359699E-01  1.727511E-02  4.004683E-03
    -9.3000  1.915630E-02  3.978794E-01  1.669900E-02  5.892943E-03
    -8.8500  1.381172E-02  2.661174E-01  1.535372E-02  6.230290E-03
    -8.4000  8.686098E-03  1.669779E-01  8.386032E-03  4.898790E-04
    -7.9500  8.701744E-03  2.351410E-01  1.816256E-02  7.654430E-03
    -7.5000  7.563624E-03  1.392251E-01  1.362730E-02  4.363467E-03
    -7.0500  7.743333E-03  1.084064E-01  1.249994E-02  3.409134E-03
    -6.6000  1.104187E-02  1.077963E-01  1.279771E-02  3.083817E-03
    -6.1500  1.643898E-02  1.320725E-01  1.581521E-02  3.243350E-03
    -5.7000  2.203786E-02  1.545885E-01  1.870967E-02  3.766481E-03
    -5.2500  1.975305E-02  1.277812E-01  1.470893E-02  3.637127E-03
    -4.8000  1.264123E-02  9.570610E-02  1.392453E-02  1.281918E-03
    -4.3500  1.868306E-02  1.008104E-01  1.339018E-02  2.981862E-03
    -3.9000  2.159549E-02  9.887315E-02  1.663405E-02  3.084368E-03
    -3.4500  2.069479E-02  9.321440E-02  1.822421E-02  3.398154E-03
    -3.0000  1.236469E-02  9.378883E-02  2.096869E-02  1.886152E-03
    -2.5500  1.987320E-02  1.061366E-01  2.119798E-02  4.082874E-03
    -2.1000  1.955717E-02  1.157162E-01  2.215655E-02  4.615361E-03
    -1.6500  1.703500E-02  1.090326E-01  2.031797E-02  4.315391E-03
    -1.2000  1.647362E-02  9.533549E-02  1.847958E-02  3.792014E-03
    -0.7500  1.770137E-02  8.598893E-02  1.832499E-02  3.447057E-03
    -0.3000  1.753092E-02  8.297743E-02  1.925600E-02  3.279295E-03
     0.1500  1.595242E-02  7.957733E-02  2.004733E-02  3.214452E-03
     0.6000  1.277496E-02  7.249052E-02  3.315169E-02  3.606420E-03
     1.0500  1.735654E-02  7.468513E-02  2.317245E-02  3.161124E-03
     1.5000  1.773543E-02  7.239140E-02  2.610224E-02  3.164593E-03
     1.9500  1.637680E-02  7.051540E-02  2.879735E-02  3.190149E-03
     2.4000  1.301724E-02  6.614618E-02  4.004353E-02  4.749859E-03
     2.8500  1.539405E-02  7.635977E-02  3.566734E-02  3.523398E-03
     3.3000  1.344560E-02  7.621757E-02  3.804153E-02  3.767517E-03
     3.7500  1.140345E-02  7.607678E-02  4.053862E-02  4.010617E-03
     4.2000  9.963784E-03  7.798221E-02  4.467268E-02  4.360294E-03
     4.6500  9.254247E-03  8.011598E-02  4.947197E-02  4.793807E-03
     5.1000  9.114080E-03  7.901287E-02  5.335292E-02  5.195835E-03
     5.5500  9.148218E-03  7.458028E-02  5.651465E-02  5.638950E-03
     6.0000  1.356101E-02  5.826423E-02  5.497629E-02  7.648286E-03
     6.4500  8.790626E-03  6.290686E-02  6.246391E-02  6.555364E-03
     6.9000  8.686543E-03  5.990734E-02  6.488552E-02  6.785165E-03
     7.3500  8.923474E-03  5.842763E-02  6.744555E-02  7.051695E-03
     7.8000  1.385426E-02  5.594559E-02  6.280949E-02  9.413452E-03
     8.2500  9.646195E-03  5.453840E-02  7.160444E-02  7.963717E-03
     8.7000  9.942253E-03  5.182961E-02  7.362667E-02  8.603024E-03
     9.1500  1.036422E-02  4.958685E-02  7.638444E-02  9.311147E-03
     9.6000  1.084897E-02  4.817698E-02  7.941081E-02  1.003479E-02
    10.0500  1.117951E-02  4.734377E-02  8.194126E-02  1.075285E-02
    10.5000  1.120105E-02  4.681472E-02  8.362642E-02  1.144085E-02
    10.9500  1.089686E-02  4.681223E-02  8.496481E-02  1.212325E-02
    11.4000  1.446219E-02  5.339322E-02  7.864953E-02  1.358250E-02
    11.8500  1.045063E-02  4.766226E-02  8.656482E-02  1.379048E-02
    12.3000  1.073088E-02  4.763547E-02  8.605794E-02  1.467841E-02
    12.7500  1.129341E-02  4.729575E-02  8.522890E-02  1.548373E-02
    13.2000  1.211445E-02  4.662232E-02  8.436188E-02  1.616708E-02
    13.6500  1.312691E-02  4.577427E-02  8.361316E-02  1.674125E-02
    14.1000  1.416125E-02  4.509057E-02  8.306516E-02  1.727590E-02
    14.5500  1.503403E-02  4.479646E-02  8.269095E-02  1.785473E-02
    15.0000  1.562559E-02  4.494595E-02  8.257665E-02  1.853556E-02
