#  Fermi level (eV):  -7.739
#  Charge transfer :   0.473
#    Electron counts for each orbital momentum:
#       0      0.670
#       1      0.826
#       2      7.030
#       3      0.000
#  Number of atoms in cluster: 102
#  Lorentzian broadening with HWHH     0.1000 eV
# -----------------------------------------------------------------------
#      e        sDOS           pDOS          dDOS          fDOS    @#
   -30.0000  1.153328E-03  1.269384E-03  2.286311E-03  1.018062E-03
   -29.5500  1.818167E-03  1.671096E-03  3.012994E-03  1.232697E-03
   -29.1000  3.451099E-03  2.470359E-03  4.503948E-03  1.716583E-03
   -28.6500  9.926981E-03  4.561372E-03  8.985360E-03  3.349925E-03
   -28.2000  1.420312E-01  1.972349E-02  6.689654E-02  2.906510E-02
   -27.7500  1.005365E-01  9.906041E-02  1.196353E-01  4.358258E-02
   -27.3000  5.854779E-02  1.947814E-01  2.956811E-01  6.243293E-02
   -26.8500  8.932132E-03  5.037653E-02  6.000664E-02  1.563009E-02
   -26.4000  2.953543E-03  8.578025E-03  1.196650E-02  3.265468E-03
   -25.9500  1.706355E-03  3.901727E-03  6.256864E-03  1.804336E-03
   -25.5000  1.259479E-03  2.581065E-03  4.762136E-03  1.396874E-03
   -25.0500  1.326330E-03  2.801869E-03  5.672035E-03  1.569374E-03
   -24.6000  9.200904E-04  6.157074E-03  1.394509E-02  8.649419E-03
   -24.1500  1.452064E-02  1.540394E-02  4.117979E-02  1.014651E-02
   -23.7000  1.263867E-03  1.823439E-03  5.015396E-03  1.316604E-03
   -23.2500  7.376738E-04  1.149789E-03  3.617762E-03  9.131870E-04
   -22.8000  6.239181E-04  9.641648E-04  3.435020E-03  8.132736E-04
   -22.3500  5.931016E-04  8.857082E-04  3.517447E-03  7.700810E-04
   -21.9000  5.989405E-04  8.548195E-04  3.748329E-03  7.573892E-04
   -21.4500  6.289711E-04  8.502945E-04  4.082534E-03  7.546379E-04
   -21.0000 -8.246568E-01 -3.141842E-02 -2.583178E-01 -1.590085E-01
   -20.5500  7.626250E-04  9.049938E-04  5.137857E-03  7.821564E-04
   -20.1000  8.790171E-04  9.663434E-04  5.945588E-03  8.160662E-04
   -19.6500  1.040731E-03  1.040824E-03  6.897305E-03  8.122985E-04
   -19.2000 -3.744916E-02  1.358193E-02  1.091928E-02  6.059319E-04
   -18.7500  1.615472E-03  1.245170E-03  9.382893E-03  6.242174E-04
   -18.3000  2.867724E-03  2.327971E-03  2.400559E-02  3.403520E-03
   -17.8500  4.764177E-03  5.399731E-03  4.633518E-02  1.183270E-02
   -17.4000 -9.073533E-03 -2.233331E-03 -6.188531E-03 -3.439280E-03
   -16.9500  2.467326E-02  5.598643E-03  1.196757E-01  3.538449E-03
   -16.5000  2.645266E-01  2.236562E-02  8.571948E-01  2.772606E-02
   -16.0500  9.313652E-02  7.736729E-02  7.349164E-01  2.969061E-02
   -15.6000  2.795705E-02  6.363758E-03  4.141880E-02  6.357293E-04
   -15.1500  1.227384E-01  9.014568E-02  1.000955E+00  3.298987E-02
   -14.7000  1.453976E-01  1.394505E-01  1.096990E+00  3.753020E-02
   -14.2500  5.167575E-02  1.057542E-01  5.842847E-01  3.110341E-02
   -13.8000  1.464934E-01  1.205683E-02  1.938273E-01  8.820698E-04
   -13.3500  1.780341E-02  1.165717E-01  3.814314E-01  3.688781E-02
   -12.9000  2.790890E-02  8.606480E-02  3.939239E-01  4.336507E-02
   -12.4500  1.488988E-02  5.198111E-02  1.973756E-01  4.609244E-02
   -12.0000  1.027771E-02  3.357052E-02  1.778961E-01  5.326251E-02
   -11.5500  1.964848E-02  2.621478E-02  3.207570E-01  2.752461E-02
   -11.1000  2.481181E-02  2.879324E-02  5.059295E-01  2.112132E-02
   -10.6500  3.199007E-02  3.616256E-02  7.553498E-01  1.962130E-02
   -10.2000  8.487664E-02  7.050835E-02  9.855284E-01  2.898988E-03
    -9.7500  2.553122E-02  4.005181E-02  1.066139E+00  1.865785E-02
    -9.3000  2.117616E-02  7.209749E-02  1.651581E+00  2.625930E-02
    -8.8500  1.550406E-02  6.290108E-02  1.142051E+00  2.620268E-02
    -8.4000  6.954273E-02  8.355330E-02  3.642708E-01  4.980903E-03
    -7.9500  2.130697E-02  8.162424E-02  1.067451E+00  3.969641E-02
    -7.5000  1.492112E-02  7.727107E-02  1.061838E+00  3.257638E-02
    -7.0500  1.695486E-02  1.072757E-01  7.464036E-01  3.312702E-02
    -6.6000  1.074759E-02  6.863195E-02  4.627579E-01  2.234727E-02
    -6.1500  1.026700E-02  4.985323E-02  4.231138E-01  2.598241E-02
    -5.7000  1.542492E-02  4.029557E-02  3.960391E-01  3.161277E-02
    -5.2500  1.792153E-02  4.172848E-02  4.136253E-01  3.261094E-02
    -4.8000  6.406363E-02  1.051708E-01  1.299900E-01  1.368221E-02
    -4.3500  2.191303E-02  3.799848E-02  2.582059E-01  3.243951E-02
    -3.9000  2.615453E-02  3.524507E-02  2.706115E-01  3.690264E-02
    -3.4500  2.875682E-02  3.325367E-02  2.604002E-01  3.270980E-02
    -3.0000  4.776549E-02  1.036704E-01  1.339798E-01  2.414019E-02
    -2.5500  3.401299E-02  2.897315E-02  2.181942E-01  3.766889E-02
    -2.1000  3.794881E-02  2.680644E-02  1.987411E-01  4.303962E-02
    -1.6500  4.123775E-02  2.475557E-02  1.648575E-01  4.068364E-02
    -1.2000  4.767449E-02  2.540703E-02  1.446749E-01  3.684764E-02
    -0.7500  6.406271E-02  2.858529E-02  1.317738E-01  3.779174E-02
    -0.3000  8.501116E-02  3.243035E-02  1.171555E-01  4.195641E-02
     0.1500  8.109731E-02  3.507373E-02  1.029866E-01  4.298985E-02
     0.6000  4.054183E-02  1.112023E-01  1.033436E-01  4.669363E-02
     1.0500  7.979393E-02  4.323337E-02  8.531214E-02  4.484918E-02
     1.5000  7.674606E-02  5.311031E-02  8.021586E-02  4.803109E-02
     1.9500  6.756021E-02  6.660373E-02  7.505229E-02  5.316670E-02
     2.4000  3.750434E-02  1.127834E-01  9.660912E-02  6.179548E-02
     2.8500  7.754509E-02  1.035575E-01  7.905245E-02  6.954630E-02
     3.3000  8.303331E-02  1.061515E-01  7.970257E-02  7.308829E-02
     3.7500  7.772142E-02  9.954406E-02  7.780613E-02  7.265059E-02
     4.2000  6.648726E-02  9.831999E-02  7.815785E-02  7.283324E-02
     4.6500  5.569179E-02  1.029449E-01  8.200278E-02  7.486317E-02
     5.1000  4.788507E-02  1.108612E-01  8.540485E-02  7.809168E-02
     5.5500  4.301204E-02  1.176263E-01  8.437972E-02  8.114892E-02
     6.0000  3.237700E-02  1.126298E-01  9.142152E-02  1.002568E-01
     6.4500  3.947398E-02  1.207242E-01  7.877999E-02  8.324989E-02
     6.9000  3.939434E-02  1.177113E-01  7.822511E-02  8.460247E-02
     7.3500  3.967358E-02  1.148130E-01  8.011899E-02  8.788369E-02
     7.8000  3.022024E-02  1.112740E-01  9.142314E-02  1.235783E-01
     8.2500  3.860130E-02  1.174292E-01  8.724299E-02  9.946765E-02
     8.7000  3.672096E-02  1.203716E-01  8.908743E-02  1.062436E-01
     9.1500  3.476438E-02  1.207581E-01  8.924158E-02  1.120578E-01
     9.6000  3.315118E-02  1.181329E-01  8.814734E-02  1.164865E-01
    10.0500  3.182640E-02  1.150468E-01  8.648123E-02  1.211131E-01
    10.5000  3.066694E-02  1.136903E-01  8.538263E-02  1.270509E-01
    10.9500  2.984525E-02  1.138306E-01  8.532692E-02  1.331675E-01
    11.4000  2.658381E-02  1.068133E-01  9.448108E-02  1.771180E-01
    11.8500  3.062936E-02  1.127905E-01  8.383363E-02  1.432271E-01
    12.3000  3.211862E-02  1.109882E-01  8.219067E-02  1.496196E-01
    12.7500  3.334612E-02  1.086919E-01  8.068977E-02  1.575806E-01
    13.2000  3.368770E-02  1.064877E-01  7.911392E-02  1.659634E-01
    13.6500  3.316615E-02  1.050762E-01  7.748657E-02  1.733828E-01
    14.1000  3.213161E-02  1.049247E-01  7.637676E-02  1.799596E-01
    14.5500  3.076062E-02  1.062047E-01  7.616180E-02  1.870671E-01
    15.0000  2.914793E-02  1.088359E-01  7.650413E-02  1.956713E-01
