#  Fermi level (eV):  -6.263
#  Charge transfer :   0.383
#    Electron counts for each orbital momentum:
#       0      0.639
#       1      0.855
#       2      7.123
#       3      0.000
#  Number of atoms in cluster: 117
#  Lorentzian broadening with HWHH     0.1000 eV
# -----------------------------------------------------------------------
#      e        sDOS           pDOS          dDOS          fDOS    @#
   -30.0000  7.637928E-04  9.367717E-04  1.572117E-03  8.186543E-04
   -29.5500  1.080216E-03  1.102889E-03  1.857354E-03  8.681335E-04
   -29.1000  1.710035E-03  1.378560E-03  2.300882E-03  9.541650E-04
   -28.6500  3.346239E-03  1.897475E-03  3.082103E-03  1.121176E-03
   -28.2000  1.170302E-02  3.209853E-03  4.874849E-03  1.577844E-03
   -27.7500  7.498516E-02  1.033973E-02  1.222790E-02  3.992090E-03
   -27.3000  8.159736E-02  2.366133E-02  3.452085E-02  7.926737E-03
   -26.8500  5.962436E-02  1.086648E-01  2.002923E-01  2.927435E-02
   -26.4000  2.510541E-02  1.443910E-01  2.329306E-01  5.483351E-02
   -25.9500  6.179231E-03  8.369741E-02  5.361922E-02  3.772915E-02
   -25.5000  2.182423E-03  1.008433E-02  1.118261E-02  4.478682E-03
   -25.0500  1.311748E-03  4.125422E-03  5.745820E-03  2.025869E-03
   -24.6000  9.373653E-04  2.419834E-03  4.013221E-03  1.349162E-03
   -24.1500  7.415519E-04  1.694118E-03  3.288588E-03  1.066054E-03
   -23.7000  6.303459E-04  1.321498E-03  2.965240E-03  9.220436E-04
   -23.2500  5.661817E-04  1.109332E-03  2.842332E-03  8.401740E-04
   -22.8000  5.318178E-04  9.822485E-04  2.840633E-03  7.914537E-04
   -22.3500  5.185532E-04  9.056676E-04  2.924495E-03  7.620082E-04
   -21.9000  5.223076E-04  8.625056E-04  3.080525E-03  7.454176E-04
   -21.4500  5.415597E-04  8.436350E-04  3.305378E-03  7.375340E-04
   -21.0000  5.770319E-04  8.448577E-04  3.606592E-03  7.371607E-04
   -20.5500  6.314471E-04  8.649872E-04  4.001412E-03  7.441433E-04
   -20.1000  7.097301E-04  9.037691E-04  4.509070E-03  7.549858E-04
   -19.6500  8.235447E-04  9.692026E-04  5.209532E-03  7.852524E-04
   -19.2000  9.881559E-04  1.064005E-03  6.148975E-03  8.223143E-04
   -18.7500  1.230052E-03  1.189014E-03  7.339795E-03  8.269823E-04
   -18.3000  1.633685E-03  1.403935E-03  9.413774E-03  9.273795E-04
   -17.8500  2.321306E-03  1.692825E-03  1.214344E-02  8.905311E-04
   -17.4000  4.008524E-03  2.537705E-03  2.261900E-02  1.985337E-03
   -16.9500  9.630803E-03  5.255884E-03  6.449531E-02  7.117753E-03
   -16.5000  7.092225E-02  1.879398E-01  1.453210E-01  6.561813E-01
   -16.0500  1.675994E-01  4.731206E-02  5.173814E-01  9.704647E-03
   -15.6000  7.353784E-02  7.213033E-02  5.751709E-01  1.730688E-02
   -15.1500  9.732354E-02  7.281124E-02  7.068376E-01  1.704434E-02
   -14.7000  6.619893E-02  1.072712E-01  7.487259E-01  2.629496E-02
   -14.2500  7.848143E-02  8.787734E-02  6.490637E-01  3.253735E-02
   -13.8000  1.049157E-01  6.595953E-02  3.896339E-01  2.995266E-02
   -13.3500  6.587001E-02  7.181556E-02  3.941352E-01  3.803555E-02
   -12.9000  2.291474E-02  1.128901E-01  3.515013E-01  5.998530E-02
   -12.4500  1.779884E-02  2.349797E-01  3.429242E-01  1.264381E-01
   -12.0000  2.047365E-02  9.789388E-02  2.925226E-01  8.282028E-02
   -11.5500  1.569552E-02  9.018517E-02  1.966839E-01  8.101339E-02
   -11.1000  9.102041E-03  3.841144E-02  1.375255E-01  4.391372E-02
   -10.6500  7.221991E-03  2.221926E-02  1.562533E-01  2.994696E-02
   -10.2000  9.994549E-03  1.619986E-02  2.242240E-01  1.552986E-02
    -9.7500  1.860659E-02  1.970428E-02  5.534867E-01  1.803807E-02
    -9.3000  3.001174E-02  2.479853E-02  1.201045E+00  2.117912E-02
    -8.8500  5.486358E-02  3.362143E-02  1.261318E+00  2.796027E-02
    -8.4000  3.478809E-02  5.201874E-02  1.978372E+00  3.210616E-02
    -7.9500  2.622863E-02  5.337777E-02  1.498312E+00  3.589966E-02
    -7.5000  1.945870E-02  2.826122E-02  1.168608E+00  2.178849E-02
    -7.0500  1.114289E-02  1.615163E-02  8.922791E-01  1.686238E-02
    -6.6000  7.198352E-03  1.070301E-02  2.726449E-01  8.347412E-03
    -6.1500  5.361850E-03  1.049463E-02  1.513396E-01  6.883900E-03
    -5.7000  5.408675E-03  1.282341E-02  1.635553E-01  7.954675E-03
    -5.2500  5.656476E-03  1.591229E-02  2.706872E-01  1.033199E-02
    -4.8000  7.248204E-03  2.008580E-02  6.005826E-01  1.415995E-02
    -4.3500  1.288227E-02  2.957586E-02  7.866447E-01  2.099698E-02
    -3.9000  1.599200E-02  2.988462E-02  6.436463E-01  2.189661E-02
    -3.4500  1.386039E-02  2.839489E-02  7.407757E-01  2.036840E-02
    -3.0000  1.333086E-02  2.694129E-02  7.765983E-01  2.129182E-02
    -2.5500  1.238375E-02  2.279506E-02  5.421231E-01  1.644843E-02
    -2.1000  1.124222E-02  2.134441E-02  3.372646E-01  1.490940E-02
    -1.6500  1.321792E-02  2.123792E-02  1.873722E-01  1.559827E-02
    -1.2000  1.753432E-02  2.581538E-02  1.203195E-01  1.837518E-02
    -0.7500  2.050932E-02  3.193455E-02  9.357239E-02  2.133439E-02
    -0.3000  2.501728E-02  3.573246E-02  7.976627E-02  2.361928E-02
     0.1500  3.359174E-02  3.803243E-02  7.087768E-02  2.585901E-02
     0.6000  4.499952E-02  4.231857E-02  6.696180E-02  2.941754E-02
     1.0500  5.876510E-02  4.604396E-02  6.608075E-02  3.422133E-02
     1.5000  7.084130E-02  4.802950E-02  6.598658E-02  3.999292E-02
     1.9500  8.530555E-02  4.947796E-02  6.535728E-02  4.591571E-02
     2.4000  1.131898E-01  5.093262E-02  6.263873E-02  5.296538E-02
     2.8500  1.660874E-01  5.334742E-02  5.833707E-02  5.978515E-02
     3.3000  2.311390E-01  5.923637E-02  5.558392E-02  6.268927E-02
     3.7500  2.094541E-01  6.873991E-02  5.394263E-02  6.403084E-02
     4.2000  1.547085E-01  7.857609E-02  5.195436E-02  6.751244E-02
     4.6500  1.290495E-01  9.002630E-02  5.190383E-02  7.511579E-02
     5.1000  1.034839E-01  1.042178E-01  5.428627E-02  8.342867E-02
     5.5500  7.698851E-02  1.186796E-01  5.897974E-02  8.799698E-02
     6.0000  6.160151E-02  1.257296E-01  6.461134E-02  8.796738E-02
     6.4500  5.059197E-02  1.242140E-01  6.818268E-02  8.453616E-02
     6.9000  4.203141E-02  1.219010E-01  6.720058E-02  8.063545E-02
     7.3500  3.610393E-02  1.216368E-01  6.262343E-02  7.719631E-02
     7.8000  3.224592E-02  1.237422E-01  5.744788E-02  7.510006E-02
     8.2500  2.986729E-02  1.287893E-01  5.352863E-02  7.515551E-02
     8.7000  2.848268E-02  1.374697E-01  5.144202E-02  7.786928E-02
     9.1500  2.751881E-02  1.506342E-01  5.094619E-02  8.364139E-02
     9.6000  2.631342E-02  1.652621E-01  5.139397E-02  9.186063E-02
    10.0500  2.451115E-02  1.708955E-01  5.232935E-02  9.958641E-02
    10.5000  2.238436E-02  1.669598E-01  5.400907E-02  1.068989E-01
    10.9500  2.043714E-02  1.659193E-01  5.708264E-02  1.191748E-01
    11.4000  1.886839E-02  1.717917E-01  6.109148E-02  1.347694E-01
    11.8500  1.760220E-02  1.725935E-01  6.405755E-02  1.362469E-01
    12.3000  1.650296E-02  1.632359E-01  6.600283E-02  1.286809E-01
    12.7500  1.550085E-02  1.528566E-01  6.790266E-02  1.272755E-01
    13.2000  1.475858E-02  1.453428E-01  7.009456E-02  1.338083E-01
    13.6500  1.456348E-02  1.402464E-01  7.232099E-02  1.460088E-01
    14.1000  1.492628E-02  1.356758E-01  7.380689E-02  1.589233E-01
    14.5500  1.533932E-02  1.309441E-01  7.451404E-02  1.703158E-01
    15.0000  1.528141E-02  1.273736E-01  7.610115E-02  1.831941E-01
