#  Fermi level (eV):  -6.985
#  Charge transfer :  -0.226
#    Electron counts for each orbital momentum:
#       0      1.815
#       1      4.329
#       2      0.082
#       3      0.000
#  Number of atoms in cluster: 152
#  Lorentzian broadening with HWHH     0.1000 eV
# -----------------------------------------------------------------------
#      e        sDOS           pDOS          dDOS          fDOS    @#
   -30.0000  8.510376E-03  6.489738E-04  1.049288E-04  5.630864E-05
   -29.5500  1.318181E-02  6.994754E-04  1.087021E-04  5.762605E-05
   -29.1000  2.535441E-02  7.842734E-04  1.147208E-04  5.962144E-05
   -28.6500  1.661651E-01  1.466926E-03  1.440602E-04  6.484606E-05
   -28.2000  1.983855E-01  1.649459E-03  2.293500E-04  9.078850E-05
   -27.7500  4.419139E-01  3.052502E-03  3.583067E-04  1.574545E-04
   -27.3000  1.580216E+00  3.820329E-03  7.117183E-04  3.717370E-04
   -26.8500  5.697407E-01  1.722879E-03  3.046386E-04  1.413544E-04
   -26.4000  8.715427E-02  1.275986E-03  1.630056E-04  7.718208E-05
   -25.9500  3.503839E-02  1.486653E-03  1.684589E-04  7.518407E-05
   -25.5000  3.503602E-02  2.709605E-03  2.664767E-04  9.602834E-05
   -25.0500  7.536095E-02  1.030531E-02  1.193988E-03  3.108619E-04
   -24.6000  9.255521E-03  1.895912E-03  7.131608E-04  7.201796E-04
   -24.1500  1.276574E-02  2.489497E-03  2.853116E-04  1.163748E-04
   -23.7000  6.688128E-03  1.892428E-03  1.767170E-04  7.835892E-05
   -23.2500  4.559905E-03  1.884808E-03  1.615325E-04  7.335562E-05
   -22.8000  3.433653E-03  1.999849E-03  1.589392E-04  7.240933E-05
   -22.3500  2.725298E-03  2.178919E-03  1.605284E-04  7.273223E-05
   -21.9000  2.237782E-03  2.412644E-03  1.642310E-04  7.365760E-05
   -21.4500  1.883664E-03  2.706405E-03  1.694214E-04  7.497958E-05
   -21.0000  1.593127E-02  2.090383E-02  3.101026E-02 -1.949827E-02
   -20.5500  1.411496E-03  3.540739E-03  1.839459E-04  7.865009E-05
   -20.1000  1.250799E-03  4.143252E-03  1.936584E-04  8.104569E-05
   -19.6500  1.125446E-03  4.946933E-03  2.058953E-04  8.403573E-05
   -19.2000  9.143273E-03 -7.950952E-03  2.536896E-04  4.437425E-05
   -18.7500  9.559711E-04  7.688708E-03  2.416295E-04  9.236418E-05
   -18.3000  9.604824E-04  1.075730E-02  2.968462E-04  1.062202E-04
   -17.8500  1.254118E-03  2.063155E-02  6.448852E-04  2.790661E-04
   -17.4000 -3.202652E-04 -3.453314E-02 -3.133789E-03 -1.868648E-03
   -16.9500  2.928265E-03  2.631176E-01  2.844050E-03  7.632479E-04
   -16.5000  6.944573E-03  1.718077E-01  2.948774E-03  6.381412E-04
   -16.0500  5.869671E-03  3.954796E-01  4.442185E-03  8.451193E-04
   -15.6000  1.992341E-02  3.796509E-01  4.045940E-04  8.410416E-05
   -15.1500  1.319558E-02  7.142913E-01  7.681685E-03  1.634652E-03
   -14.7000  7.973519E-03  1.002639E+00  1.009123E-02  2.165327E-03
   -14.2500  8.466228E-03  8.321693E-01  7.361848E-03  1.823609E-03
   -13.8000  1.023498E-02  1.528416E+00  1.028593E-03  9.775672E-05
   -13.3500  7.544185E-03  8.503459E-01  5.986668E-03  1.338610E-03
   -12.9000  4.064844E-03  8.145171E-01  4.383514E-03  1.081712E-03
   -12.4500  3.585830E-03  1.080596E+00  4.130569E-03  9.417093E-04
   -12.0000  2.084523E-03  4.709200E-01  2.521471E-03  6.137859E-04
   -11.5500  1.740948E-03  1.366000E-01  2.812353E-03  6.341405E-04
   -11.1000  2.604965E-03  1.086469E-01  5.996261E-03  1.258969E-03
   -10.6500  3.257746E-03  1.023980E-01  1.316132E-02  2.603664E-03
   -10.2000  4.589561E-03  2.690007E-01  5.634090E-03  2.687282E-04
    -9.7500  5.079194E-03  1.751216E-01  1.890468E-02  4.649171E-03
    -9.3000  6.580463E-03  2.054941E-01  1.741390E-02  5.539992E-03
    -8.8500  5.015634E-03  2.552935E-01  1.741337E-02  1.125565E-02
    -8.4000  1.108135E-02  1.335258E-01  7.115536E-03  4.815468E-04
    -7.9500  5.134455E-03  1.293356E-01  5.672959E-03  3.844461E-03
    -7.5000  5.906908E-03  8.159764E-02  3.941764E-03  2.456335E-03
    -7.0500  1.574028E-02  5.090139E-02  4.844431E-03  1.275862E-03
    -6.6000  2.032976E-02  4.996912E-02  9.029402E-03  1.884590E-03
    -6.1500  7.812140E-02  1.821087E-01  3.770951E-02  7.426058E-03
    -5.7000  6.678742E-02  2.816977E-01  4.719921E-02  7.222803E-03
    -5.2500  3.880667E-02  2.030898E-01  2.912526E-02  4.892996E-03
    -4.8000  1.149339E-02  8.217856E-02  1.495395E-02  1.359024E-03
    -4.3500  2.700510E-02  1.066567E-01  1.545822E-02  3.068470E-03
    -3.9000  1.909011E-02  8.995828E-02  1.103090E-02  2.142631E-03
    -3.4500  1.787173E-02  1.105141E-01  1.180273E-02  1.893768E-03
    -3.0000  1.235326E-02  9.302968E-02  2.075401E-02  1.862628E-03
    -2.5500  2.815995E-02  1.048103E-01  1.390213E-02  1.979831E-03
    -2.1000  2.666723E-02  1.297697E-01  1.575408E-02  2.210839E-03
    -1.6500  1.430566E-02  1.434929E-01  2.089867E-02  2.419834E-03
    -1.2000  1.192909E-02  1.688569E-01  2.732892E-02  2.208766E-03
    -0.7500  1.133600E-02  2.013044E-01  3.710517E-02  2.508425E-03
    -0.3000  9.401738E-03  1.406652E-01  3.337961E-02  2.024221E-03
     0.1500  1.005162E-02  1.083709E-01  2.846929E-02  2.007322E-03
     0.6000  1.277021E-02  7.203099E-02  3.286250E-02  3.569211E-03
     1.0500  1.003993E-02  9.144836E-02  2.957092E-02  2.565349E-03
     1.5000  7.175321E-03  8.389649E-02  3.076944E-02  2.873261E-03
     1.9500  5.717733E-03  7.927995E-02  3.389666E-02  3.442632E-03
     2.4000  1.301436E-02  6.578255E-02  3.971479E-02  4.704822E-03
     2.8500  5.329551E-03  7.202060E-02  3.774137E-02  4.575488E-03
     3.3000  5.769440E-03  6.776476E-02  3.744302E-02  4.600029E-03
     3.7500  6.163471E-03  6.520296E-02  3.937378E-02  4.823384E-03
     4.2000  6.111943E-03  6.439619E-02  4.122347E-02  5.299825E-03
     4.6500  6.313535E-03  6.714136E-02  4.296814E-02  6.029903E-03
     5.1000  6.261497E-03  6.722821E-02  4.983717E-02  6.798947E-03
     5.5500  5.631202E-03  6.223880E-02  5.952887E-02  6.901889E-03
     6.0000  1.355946E-02  5.803260E-02  5.456493E-02  7.585844E-03
     6.4500  5.101046E-03  4.820811E-02  6.697552E-02  6.639907E-03
     6.9000  5.025949E-03  4.357489E-02  6.464755E-02  6.676513E-03
     7.3500  5.123016E-03  4.156684E-02  6.294657E-02  6.897449E-03
     7.8000  1.385236E-02  5.575937E-02  6.235611E-02  9.341515E-03
     8.2500  6.245530E-03  3.953985E-02  6.454409E-02  7.403791E-03
     8.7000  7.288277E-03  3.875394E-02  6.601544E-02  7.633995E-03
     9.1500  8.307973E-03  3.979093E-02  6.728527E-02  8.135086E-03
     9.6000  9.088196E-03  4.216787E-02  6.826506E-02  8.961353E-03
    10.0500  9.956472E-03  4.332011E-02  6.891973E-02  9.918011E-03
    10.5000  1.122717E-02  4.194155E-02  7.041682E-02  1.094710E-02
    10.9500  1.266857E-02  3.952913E-02  7.245382E-02  1.197850E-02
    11.4000  1.445784E-02  5.326948E-02  7.811425E-02  1.349009E-02
    11.8500  1.336661E-02  3.767688E-02  7.259021E-02  1.347508E-02
    12.3000  1.305063E-02  3.818521E-02  7.202431E-02  1.431804E-02
    12.7500  1.335839E-02  3.973974E-02  7.347033E-02  1.557172E-02
    13.2000  1.418152E-02  4.204777E-02  7.771949E-02  1.734218E-02
    13.6500  1.471138E-02  4.302698E-02  8.325578E-02  1.893378E-02
    14.1000  1.492720E-02  4.140133E-02  8.586069E-02  1.921396E-02
    14.5500  1.477509E-02  3.975485E-02  8.739905E-02  1.938390E-02
    15.0000  1.420975E-02  3.881624E-02  8.920299E-02  1.994500E-02
