#  Fermi level (eV):  -6.355
#  Charge transfer :   0.357
#    Electron counts for each orbital momentum:
#       0      0.627
#       1      0.812
#       2      7.205
#       3      0.000
#  Number of atoms in cluster: 122
#  Lorentzian broadening with HWHH     0.1000 eV
# -----------------------------------------------------------------------
#      e        sDOS           pDOS          dDOS          fDOS    @#
   -30.0000  7.080597E-04  9.220442E-04  1.522313E-03  8.201208E-04
   -29.5500  9.925144E-04  1.087082E-03  1.792290E-03  8.714949E-04
   -29.1000  1.552888E-03  1.365807E-03  2.213327E-03  9.634482E-04
   -28.6500  2.978857E-03  1.906546E-03  2.960290E-03  1.151344E-03
   -28.2000  9.772599E-03  3.376442E-03  4.674516E-03  1.722164E-03
   -27.7500  8.856910E-02  1.322502E-02  1.290123E-02  6.195258E-03
   -27.3000  7.640984E-02  2.701992E-02  3.457318E-02  9.652238E-03
   -26.8500  4.995243E-02  1.054643E-01  1.792380E-01  3.130611E-02
   -26.4000  2.721250E-02  1.403263E-01  2.021975E-01  5.020927E-02
   -25.9500  7.937793E-03  8.283964E-02  6.407976E-02  4.068651E-02
   -25.5000  2.309151E-03  9.763563E-03  1.112051E-02  4.624404E-03
   -25.0500  1.569865E-03  4.315756E-03  6.124220E-03  2.138625E-03
   -24.6000  4.400262E-04  4.711359E-03  9.509282E-03  3.329724E-03
   -24.1500  5.600123E-03  6.609379E-03  7.049820E-03  3.547390E-03
   -23.7000  9.125834E-04  1.619373E-03  3.253276E-03  1.071604E-03
   -23.2500  6.462270E-04  1.174585E-03  2.893825E-03  8.758884E-04
   -22.8000  5.671652E-04  9.980473E-04  2.833416E-03  8.026253E-04
   -22.3500  5.378935E-04  9.054597E-04  2.892364E-03  7.642810E-04
   -21.9000  5.346685E-04  8.561310E-04  3.033282E-03  7.441276E-04
   -21.4500  5.506289E-04  8.346966E-04  3.245770E-03  7.353553E-04
   -21.0000  1.721277E-01 -6.041670E-01  1.589399E+01 -1.339483E+01
   -20.5500  6.379849E-04  8.529055E-04  3.905152E-03  7.411020E-04
   -20.1000  7.154239E-04  8.891991E-04  4.377760E-03  7.499517E-04
   -19.6500  8.272202E-04  9.486780E-04  5.006540E-03  7.701623E-04
   -19.2000 -2.694835E-01  7.513957E-02  1.443107E-02  3.100924E-03
   -18.7500  1.230927E-03  1.161692E-03  6.990866E-03  8.308998E-04
   -18.3000  1.623828E-03  1.361944E-03  8.810253E-03  9.233511E-04
   -17.8500  2.288934E-03  1.634508E-03  1.121545E-02  9.226738E-04
   -17.4000  3.600190E-03  2.026117E-03  1.435699E-02  6.600344E-04
   -16.9500  8.204575E-03  4.189139E-03  4.307295E-02  4.319634E-03
   -16.5000 -8.575887E-02 -1.231708E-01 -2.507430E-01 -3.836750E-01
   -16.0500  2.378114E-01  4.743652E-02  6.745386E-01  1.075291E-02
   -15.6000  2.338673E-02  2.265417E-03  1.754073E-02  5.775896E-04
   -15.1500  1.378140E-01  7.157483E-02  7.480978E-01  1.981510E-02
   -14.7000  6.690273E-02  1.043108E-01  6.545545E-01  2.629278E-02
   -14.2500  8.154387E-02  1.012744E-01  7.815944E-01  2.836436E-02
   -13.8000  1.552140E-01  1.308152E-02  4.120216E-02  6.844186E-04
   -13.3500  5.479443E-02  7.567851E-02  4.460610E-01  3.239016E-02
   -12.9000  2.517599E-02  1.061529E-01  3.315697E-01  5.283398E-02
   -12.4500  2.112368E-02  2.006536E-01  3.530119E-01  9.879643E-02
   -12.0000  2.044410E-02  1.159338E-01  2.655805E-01  8.959946E-02
   -11.5500  2.316247E-02  9.144908E-02  2.240949E-01  7.051837E-02
   -11.1000  1.015086E-02  3.531490E-02  1.622928E-01  4.418425E-02
   -10.6500  7.233495E-03  1.869782E-02  1.495963E-01  2.180615E-02
   -10.2000  1.316155E-01  6.494157E-02  2.206179E+00  2.058725E-03
    -9.7500  2.275019E-02  2.238139E-02  9.250988E-01  1.994670E-02
    -9.3000  2.983000E-02  2.886926E-02  1.167079E+00  2.534292E-02
    -8.8500  4.059281E-02  3.112429E-02  1.026603E+00  3.101025E-02
    -8.4000  3.941734E-02  1.350465E-01  3.921097E-01  3.624769E-03
    -7.9500  1.750957E-02  3.569677E-02  1.494144E+00  3.375525E-02
    -7.5000  1.320199E-02  1.905819E-02  1.421161E+00  2.616629E-02
    -7.0500  1.103414E-02  1.551326E-02  9.352570E-01  1.480125E-02
    -6.6000  7.350535E-03  9.674270E-03  2.844837E-01  7.080084E-03
    -6.1500  6.118172E-03  9.652734E-03  1.613645E-01  6.018995E-03
    -5.7000  7.618924E-03  1.134578E-02  2.125389E-01  7.614204E-03
    -5.2500  1.233836E-02  1.565311E-02  4.816225E-01  1.164562E-02
    -4.8000  3.745687E-02  1.349430E-01  1.437673E-01  1.009332E-02
    -4.3500  1.831974E-02  3.381288E-02  7.899690E-01  1.980856E-02
    -3.9000  1.774633E-02  3.765595E-02  8.250585E-01  1.762793E-02
    -3.4500  1.395959E-02  3.961386E-02  6.988131E-01  1.970265E-02
    -3.0000  4.840390E-02  1.073964E-01  1.529649E-01  2.054771E-02
    -2.5500  1.325439E-02  2.376860E-02  3.368473E-01  1.244923E-02
    -2.1000  1.607253E-02  1.989112E-02  2.235126E-01  1.293291E-02
    -1.6500  2.087774E-02  2.062121E-02  1.486004E-01  1.545148E-02
    -1.2000  2.502618E-02  2.518261E-02  8.935935E-02  1.716518E-02
    -0.7500  3.396648E-02  3.463686E-02  6.357328E-02  2.011846E-02
    -0.3000  4.591165E-02  4.501308E-02  5.536155E-02  2.486958E-02
     0.1500  5.541850E-02  5.313369E-02  5.150740E-02  2.887077E-02
     0.6000  4.066503E-02  1.150737E-01  1.121706E-01  4.216342E-02
     1.0500  9.038904E-02  5.657881E-02  5.239231E-02  3.699011E-02
     1.5000  1.277531E-01  5.573240E-02  5.780213E-02  4.122989E-02
     1.9500  1.849941E-01  5.986574E-02  6.054942E-02  4.874495E-02
     2.4000  3.750744E-02  1.163398E-01  1.032501E-01  5.707392E-02
     2.8500  2.049513E-01  7.762682E-02  5.422826E-02  6.915934E-02
     3.3000  1.496290E-01  8.028574E-02  5.173845E-02  6.979918E-02
     3.7500  1.061202E-01  8.149001E-02  5.296970E-02  6.848588E-02
     4.2000  7.961717E-02  9.265423E-02  5.611555E-02  7.454769E-02
     4.6500  6.956792E-02  1.104794E-01  6.150740E-02  8.563278E-02
     5.1000  6.621673E-02  1.211179E-01  6.765822E-02  8.880531E-02
     5.5500  6.237411E-02  1.216546E-01  7.334633E-02  8.436449E-02
     6.0000  3.227816E-02  1.152289E-01  9.577486E-02  9.591721E-02
     6.4500  5.383559E-02  1.141257E-01  8.118488E-02  7.726299E-02
     6.9000  4.661445E-02  1.119044E-01  7.823863E-02  7.608614E-02
     7.3500  3.783596E-02  1.147067E-01  7.076711E-02  7.582338E-02
     7.8000  3.011023E-02  1.133507E-01  9.520484E-02  1.198349E-01
     8.2500  2.691308E-02  1.414417E-01  5.886245E-02  8.028465E-02
     8.7000  2.444079E-02  1.652709E-01  5.686123E-02  8.722725E-02
     9.1500  2.217417E-02  1.792929E-01  5.545243E-02  9.401757E-02
     9.6000  1.990629E-02  1.703442E-01  5.384072E-02  9.636777E-02
    10.0500  1.809369E-02  1.614899E-01  5.319745E-02  1.014750E-01
    10.5000  1.693524E-02  1.662651E-01  5.462386E-02  1.148800E-01
    10.9500  1.633785E-02  1.796599E-01  5.719232E-02  1.299553E-01
    11.4000  2.648981E-02  1.079325E-01  9.773459E-02  1.751777E-01
    11.8500  1.577006E-02  1.816516E-01  6.218748E-02  1.309528E-01
    12.3000  1.544684E-02  1.702066E-01  6.484639E-02  1.336034E-01
    12.7500  1.503803E-02  1.588677E-01  6.749709E-02  1.394235E-01
    13.2000  1.478202E-02  1.526357E-01  6.924378E-02  1.456150E-01
    13.6500  1.500385E-02  1.498394E-01  6.950758E-02  1.536044E-01
    14.1000  1.579286E-02  1.465319E-01  6.932614E-02  1.627690E-01
    14.5500  1.665064E-02  1.417335E-01  7.033375E-02  1.694221E-01
    15.0000  1.665884E-02  1.361629E-01  7.326089E-02  1.740682E-01
