#  Fermi level (eV):  -6.238
#  Charge transfer :   0.019
#    Electron counts for each orbital momentum:
#       0      0.369
#       1      6.462
#       2      1.151
#       3      0.000
#  Number of atoms in cluster: 127
#  Lorentzian broadening with HWHH     0.1000 eV
# -----------------------------------------------------------------------
#      e        sDOS           pDOS          dDOS          fDOS    @#
   -30.0000  6.650677E-04  7.657142E-03  8.277395E-04  4.579593E-04
   -29.5500  7.041688E-04  9.519271E-03  9.243995E-04  5.014252E-04
   -29.1000  8.106201E-04  1.242305E-02  1.075594E-03  5.678743E-04
   -28.6500  1.134093E-03  1.786706E-02  1.356038E-03  6.849973E-04
   -28.2000  3.133683E-03  3.591889E-02  2.176734E-03  9.733636E-04
   -27.7500  1.218891E-02  1.804356E-01  5.656012E-03  2.863344E-03
   -27.3000  1.153997E-02  1.818119E-01  2.267837E-02  8.263560E-03
   -26.8500  1.713276E-02  5.316732E-01  3.370685E-02  1.801255E-02
   -26.4000  2.362480E-02  5.530146E-01  6.423415E-02  2.908170E-02
   -25.9500  9.483412E-03  1.951703E-01  2.759597E-02  1.875629E-02
   -25.5000  1.671292E-03  1.373941E-01  4.605797E-03  2.709172E-03
   -25.0500  1.044913E-03  3.370000E-01  3.363064E-03  2.542666E-03
   -24.6000  2.232125E-03  2.713892E+00  1.716433E-02  1.506667E-02
   -24.1500  3.643781E-03  4.290946E+00  2.002300E-02  6.265184E-03
   -23.7000  8.382234E-04  1.792899E+00  4.015287E-03  8.818435E-03
   -23.2500  5.521871E-04  2.110716E-01  1.882645E-03  1.258357E-03
   -22.8000  4.857965E-04  8.855230E-02  1.534067E-03  8.458046E-04
   -22.3500  4.593948E-04  4.996950E-02  1.435033E-03  7.355059E-04
   -21.9000  4.493489E-04  3.243648E-02  1.417505E-03  6.955354E-04
   -21.4500  4.492555E-04  2.291407E-02  1.439876E-03  6.833771E-04
   -21.0000  4.571767E-04  1.715332E-02  1.489124E-03  6.867524E-04
   -20.5500  4.729077E-04  1.340463E-02  1.561038E-03  7.009828E-04
   -20.1000  4.974661E-04  1.083798E-02  1.656525E-03  7.252258E-04
   -19.6500  5.331123E-04  9.015518E-03  1.777421E-03  7.579288E-04
   -19.2000  5.839482E-04  7.693868E-03  1.932894E-03  8.025522E-04
   -18.7500  6.569283E-04  6.725113E-03  2.128111E-03  8.546494E-04
   -18.3000  7.684776E-04  6.045556E-03  2.410990E-03  9.436183E-04
   -17.8500  9.439989E-04  5.600715E-03  2.790689E-03  1.042328E-03
   -17.4000  1.302384E-03  5.570788E-03  3.672365E-03  1.425003E-03
   -16.9500  2.273532E-03  6.632156E-03  6.490089E-03  3.021045E-03
   -16.5000  1.691116E-02  6.198783E-02  1.417432E-01  6.112692E-02
   -16.0500  4.192215E-02  3.429144E-02  5.783225E-02  1.252803E-02
   -15.6000  4.344099E-02  5.371944E-02  4.195115E-02  1.897830E-02
   -15.1500  4.164320E-02  5.850431E-02  7.076314E-02  1.951165E-02
   -14.7000  4.844121E-02  7.897686E-02  1.083237E-01  2.810555E-02
   -14.2500  3.153380E-02  6.963984E-02  9.733251E-02  3.384825E-02
   -13.8000  3.769511E-02  7.143557E-02  1.141534E-01  3.033636E-02
   -13.3500  3.603485E-02  8.667315E-02  1.645622E-01  3.392166E-02
   -12.9000  3.947480E-02  9.755827E-02  1.611390E-01  5.388406E-02
   -12.4500  4.219807E-02  7.264939E-02  1.586764E-01  7.040461E-02
   -12.0000  3.659337E-02  6.806110E-02  1.270656E-01  7.201828E-02
   -11.5500  2.708992E-02  5.963012E-02  9.700653E-02  5.015312E-02
   -11.1000  1.188409E-02  3.332629E-02  6.008924E-02  3.126078E-02
   -10.6500  9.594776E-03  2.130193E-02  4.133181E-02  1.533422E-02
   -10.2000  1.317757E-02  2.234704E-02  5.375985E-02  1.838326E-02
    -9.7500  1.571019E-02  3.342997E-02  8.446462E-02  2.719914E-02
    -9.3000  1.869580E-02  3.302939E-02  7.463598E-02  2.986190E-02
    -8.8500  2.149654E-02  2.827561E-02  6.921012E-02  2.587185E-02
    -8.4000  1.975959E-02  2.921505E-02  6.672072E-02  2.389614E-02
    -7.9500  2.192123E-02  2.614230E-02  6.409186E-02  1.604988E-02
    -7.5000  3.051311E-02  2.702979E-02  7.872481E-02  1.428900E-02
    -7.0500  3.215820E-02  2.934678E-02  8.593649E-02  1.265295E-02
    -6.6000  3.416405E-02  3.295326E-02  9.715550E-02  1.142873E-02
    -6.1500  5.480737E-02  4.600462E-02  1.550802E-01  1.380415E-02
    -5.7000  1.020626E-01  7.206421E-02  3.128968E-01  2.068665E-02
    -5.2500  8.566759E-02  9.845775E-02  7.854464E-01  2.831765E-02
    -4.8000  5.958717E-02  1.160841E-01  1.140991E+00  4.174530E-02
    -4.3500  4.558466E-02  9.780149E-02  8.057563E-01  5.449726E-02
    -3.9000  3.808857E-02  8.108192E-02  6.518346E-01  5.562114E-02
    -3.4500  3.959148E-02  6.076966E-02  5.791726E-01  4.702115E-02
    -3.0000  4.282655E-02  5.445029E-02  7.183987E-01  3.808327E-02
    -2.5500  5.645345E-02  6.666894E-02  1.262169E+00  4.381373E-02
    -2.1000  8.142126E-02  7.267674E-02  1.316620E+00  5.383408E-02
    -1.6500  1.108138E-01  7.853423E-02  1.510614E+00  6.537202E-02
    -1.2000  1.266314E-01  8.457143E-02  1.612868E+00  6.820346E-02
    -0.7500  8.741334E-02  1.113742E-01  1.205796E+00  7.253895E-02
    -0.3000  8.834906E-02  1.396425E-01  1.130079E+00  8.225247E-02
     0.1500  1.023181E-01  1.284711E-01  1.013257E+00  7.632784E-02
     0.6000  9.713638E-02  1.075734E-01  4.841457E-01  7.116111E-02
     1.0500  1.007084E-01  1.139518E-01  3.600675E-01  8.187257E-02
     1.5000  1.130924E-01  1.486434E-01  3.497094E-01  1.086126E-01
     1.9500  9.469078E-02  1.780551E-01  3.449723E-01  1.431939E-01
     2.4000  7.941695E-02  1.872961E-01  3.023049E-01  1.742239E-01
     2.8500  8.318859E-02  2.049235E-01  2.841436E-01  1.985502E-01
     3.3000  8.626820E-02  2.432924E-01  3.032396E-01  2.213318E-01
     3.7500  7.003484E-02  2.395928E-01  3.057972E-01  2.186576E-01
     4.2000  6.431158E-02  2.054315E-01  2.889200E-01  2.116351E-01
     4.6500  6.735288E-02  1.895044E-01  2.909482E-01  2.225895E-01
     5.1000  6.955291E-02  1.896507E-01  3.061359E-01  2.371753E-01
     5.5500  6.765726E-02  1.888400E-01  3.038678E-01  2.464888E-01
     6.0000  6.417468E-02  1.897827E-01  2.717345E-01  2.550869E-01
     6.4500  6.167388E-02  2.058002E-01  2.410720E-01  2.669721E-01
     6.9000  5.989687E-02  2.286222E-01  2.169470E-01  2.786430E-01
     7.3500  5.486368E-02  2.414375E-01  1.941736E-01  2.862956E-01
     7.8000  4.577843E-02  2.413513E-01  1.755789E-01  2.902703E-01
     8.2500  3.704293E-02  2.403216E-01  1.660390E-01  3.006027E-01
     8.7000  3.166952E-02  2.426479E-01  1.645742E-01  3.259469E-01
     9.1500  2.921749E-02  2.348154E-01  1.652101E-01  3.640505E-01
     9.6000  2.739302E-02  2.136961E-01  1.640860E-01  4.071178E-01
    10.0500  2.573754E-02  1.936452E-01  1.646069E-01  4.484781E-01
    10.5000  2.458314E-02  1.744267E-01  1.704207E-01  4.810048E-01
    10.9500  2.392702E-02  1.570220E-01  1.837846E-01  5.048468E-01
    11.4000  2.385233E-02  1.471956E-01  2.038755E-01  5.206131E-01
    11.8500  2.403589E-02  1.445841E-01  2.273917E-01  5.297203E-01
    12.3000  2.390574E-02  1.406051E-01  2.463478E-01  5.357280E-01
    12.7500  2.356210E-02  1.295850E-01  2.492315E-01  5.418280E-01
    13.2000  2.349586E-02  1.188712E-01  2.415659E-01  5.565430E-01
    13.6500  2.412036E-02  1.135034E-01  2.358753E-01  5.858145E-01
    14.1000  2.567759E-02  1.106180E-01  2.316395E-01  6.186272E-01
    14.5500  2.775918E-02  1.078052E-01  2.268290E-01  6.354239E-01
    15.0000  2.924731E-02  1.059714E-01  2.256370E-01  6.274346E-01
