#  Fermi level (eV):  -6.238
#  Charge transfer :   0.354
#    Electron counts for each orbital momentum:
#       0      0.621
#       1      0.804
#       2      7.220
#       3      0.000
#  Number of atoms in cluster: 127
#  Lorentzian broadening with HWHH     0.1000 eV
# -----------------------------------------------------------------------
#      e        sDOS           pDOS          dDOS          fDOS    @#
   -30.0000  7.747118E-04  9.591206E-04  1.573676E-03  8.303457E-04
   -29.5500  1.127111E-03  1.153254E-03  1.878764E-03  8.899490E-04
   -29.1000  1.884575E-03  1.499397E-03  2.380026E-03  1.001720E-03
   -28.6500  4.176244E-03  2.245911E-03  3.365983E-03  1.253418E-03
   -28.2000  2.224522E-02  5.035036E-03  6.596275E-03  2.313776E-03
   -27.7500  4.121678E-02  2.829170E-02  2.183398E-02  9.100747E-03
   -27.3000  1.088170E-01  2.870186E-02  5.370741E-02  1.114317E-02
   -26.8500  4.525903E-02  9.036179E-02  2.346907E-01  2.873178E-02
   -26.4000  3.902756E-02  1.288747E-01  1.677124E-01  4.762133E-02
   -25.9500  6.221990E-03  5.319140E-02  4.523435E-02  2.422144E-02
   -25.5000  2.083876E-03  7.197903E-03  9.030285E-03  3.297694E-03
   -25.0500  1.403304E-03  3.658608E-03  5.603426E-03  1.854370E-03
   -24.6000  4.410175E-04  3.975934E-03  9.500449E-03  3.464375E-03
   -24.1500  4.836326E-03  8.284847E-03  1.467928E-02  5.127850E-03
   -23.7000  1.103164E-03  1.872322E-03  3.836854E-03  1.330155E-03
   -23.2500  6.721212E-04  1.193055E-03  3.016212E-03  9.188845E-04
   -22.8000  5.755437E-04  9.920984E-04  2.888884E-03  8.153529E-04
   -22.3500  5.439288E-04  8.970607E-04  2.934189E-03  7.690391E-04
   -21.9000  5.420699E-04  8.496164E-04  3.076085E-03  7.465451E-04
   -21.4500  5.608131E-04  8.304655E-04  3.292396E-03  7.354858E-04
   -21.0000  1.727418E-01 -3.631014E-01  5.403176E+00 -8.425277E+00
   -20.5500  6.581210E-04  8.551246E-04  3.976726E-03  7.411189E-04
   -20.1000  7.450894E-04  8.980883E-04  4.490692E-03  7.589464E-04
   -19.6500  8.694848E-04  9.635374E-04  5.159813E-03  7.825223E-04
   -19.2000 -2.985390E-01  7.166683E-02  1.556567E-02  2.492187E-03
   -18.7500  1.326461E-03  1.192820E-03  7.262205E-03  8.395535E-04
   -18.3000  1.786853E-03  1.413767E-03  9.251177E-03  9.362909E-04
   -17.8500  2.600589E-03  1.718145E-03  1.195948E-02  9.322195E-04
   -17.4000  4.560839E-03  2.485709E-03  2.017490E-02  1.554971E-03
   -16.9500  1.174752E-02  5.415580E-03  6.000971E-02  6.238985E-03
   -16.5000  1.023191E-01  1.829864E-01  1.800722E-01  4.769443E-01
   -16.0500  9.659737E-02  7.305610E-02  5.207117E-01  1.469086E-02
   -15.6000  3.145980E-02  2.476833E-03  2.071355E-02  5.811111E-04
   -15.1500  1.106523E-01  9.533939E-02  5.339803E-01  2.556496E-02
   -14.7000  7.069701E-02  9.951337E-02  9.789548E-01  3.276831E-02
   -14.2500  1.219341E-01  8.602047E-02  6.447072E-01  2.968769E-02
   -13.8000  1.814549E-01  1.348596E-02  4.582214E-02  7.007783E-04
   -13.3500  6.889703E-02  8.217517E-02  4.986771E-01  3.170209E-02
   -12.9000  2.977741E-02  1.056518E-01  3.951679E-01  4.160126E-02
   -12.4500  4.014671E-02  1.656004E-01  4.192451E-01  7.387686E-02
   -12.0000  2.077813E-02  1.551635E-01  3.473869E-01  1.032044E-01
   -11.5500  1.112536E-02  1.142897E-01  2.160895E-01  9.151172E-02
   -11.1000  6.967243E-03  3.517989E-02  1.514588E-01  3.803297E-02
   -10.6500  7.032714E-03  1.606300E-02  1.749707E-01  1.560444E-02
   -10.2000  1.235947E-01  6.721482E-02  1.716706E+00  2.429841E-03
    -9.7500  2.815927E-02  2.075961E-02  9.517632E-01  2.104343E-02
    -9.3000  2.329996E-02  2.299384E-02  9.919734E-01  2.567112E-02
    -8.8500  3.263061E-02  3.108948E-02  1.327592E+00  2.792158E-02
    -8.4000  3.666186E-02  1.309581E-01  4.085155E-01  3.074140E-03
    -7.9500  1.233782E-02  2.014225E-02  1.252535E+00  2.437675E-02
    -7.5000  1.041510E-02  1.068410E-02  8.110630E-01  1.808347E-02
    -7.0500  7.029234E-03  7.836661E-03  7.980641E-01  1.784987E-02
    -6.6000  3.818734E-03  5.242092E-03  4.153967E-01  7.191844E-03
    -6.1500  3.437526E-03  5.133143E-03  1.754414E-01  4.861703E-03
    -5.7000  4.880240E-03  6.865661E-03  2.124521E-01  5.545799E-03
    -5.2500  9.184372E-03  1.429694E-02  6.849101E-01  1.090262E-02
    -4.8000  2.521853E-02  1.264976E-01  1.580888E-01  1.128738E-02
    -4.3500  2.426517E-02  3.114841E-02  8.274942E-01  1.617677E-02
    -3.9000  2.322023E-02  3.803371E-02  8.362523E-01  1.779342E-02
    -3.4500  2.157141E-02  3.261544E-02  5.619199E-01  1.854610E-02
    -3.0000  4.801319E-02  1.080269E-01  1.513315E-01  2.107218E-02
    -2.5500  1.755047E-02  2.380400E-02  2.344476E-01  1.529926E-02
    -2.1000  1.899382E-02  2.551119E-02  1.584640E-01  1.561283E-02
    -1.6500  2.459024E-02  3.301873E-02  1.190203E-01  1.948471E-02
    -1.2000  3.443167E-02  4.436243E-02  9.940433E-02  2.711033E-02
    -0.7500  4.644202E-02  4.997395E-02  8.447179E-02  3.028391E-02
    -0.3000  6.501533E-02  5.111812E-02  7.296543E-02  3.019887E-02
     0.1500  7.485334E-02  5.546653E-02  5.906480E-02  3.186983E-02
     0.6000  4.034605E-02  1.153831E-01  1.117432E-01  4.307026E-02
     1.0500  9.619633E-02  5.519065E-02  5.390422E-02  4.216554E-02
     1.5000  1.225032E-01  5.677266E-02  5.981235E-02  4.895055E-02
     1.9500  1.453227E-01  5.591282E-02  6.158087E-02  5.027213E-02
     2.4000  3.722099E-02  1.165096E-01  1.030713E-01  5.821769E-02
     2.8500  1.713207E-01  6.872812E-02  5.993616E-02  5.093793E-02
     3.3000  1.513778E-01  7.552657E-02  6.051640E-02  5.308499E-02
     3.7500  1.369121E-01  8.088175E-02  5.583421E-02  5.680493E-02
     4.2000  1.099550E-01  8.455468E-02  5.110990E-02  6.169471E-02
     4.6500  8.622011E-02  9.060142E-02  5.017112E-02  6.889509E-02
     5.1000  7.268043E-02  1.005270E-01  5.388888E-02  7.987682E-02
     5.5500  6.299904E-02  1.119611E-01  6.104258E-02  9.122924E-02
     6.0000  3.204886E-02  1.151736E-01  9.586897E-02  9.760742E-02
     6.4500  4.839390E-02  1.290912E-01  7.278744E-02  9.883295E-02
     6.9000  4.135810E-02  1.398657E-01  7.163251E-02  9.951895E-02
     7.3500  3.223177E-02  1.447905E-01  6.510203E-02  9.657606E-02
     7.8000  2.990563E-02  1.132102E-01  9.537955E-02  1.218118E-01
     8.2500  2.112163E-02  1.598764E-01  5.675888E-02  9.188823E-02
     8.7000  1.968435E-02  1.727902E-01  5.748959E-02  9.353908E-02
     9.1500  1.940383E-02  1.840692E-01  5.933364E-02  9.694799E-02
     9.6000  1.911767E-02  1.876579E-01  6.073141E-02  1.009802E-01
    10.0500  1.838871E-02  1.828541E-01  6.234523E-02  1.041668E-01
    10.5000  1.745289E-02  1.773114E-01  6.482927E-02  1.046893E-01
    10.9500  1.635175E-02  1.758228E-01  6.679126E-02  1.034692E-01
    11.4000  2.632778E-02  1.076708E-01  9.801387E-02  1.776442E-01
    11.8500  1.349975E-02  1.767699E-01  6.405766E-02  1.068280E-01
    12.3000  1.251262E-02  1.703591E-01  6.326981E-02  1.119203E-01
    12.7500  1.199829E-02  1.611090E-01  6.435167E-02  1.200243E-01
    13.2000  1.180166E-02  1.522728E-01  6.705159E-02  1.308811E-01
    13.6500  1.166136E-02  1.448024E-01  7.075909E-02  1.437457E-01
    14.1000  1.142230E-02  1.382923E-01  7.487644E-02  1.589279E-01
    14.5500  1.122123E-02  1.319206E-01  7.908558E-02  1.759954E-01
    15.0000  1.126534E-02  1.262802E-01  8.256987E-02  1.923628E-01
