#  Fermi level (eV):  -6.238
#  Charge transfer :  -0.178
#    Electron counts for each orbital momentum:
#       0      1.817
#       1      4.249
#       2      0.111
#       3      0.000
#  Number of atoms in cluster: 125
#  Lorentzian broadening with HWHH     0.1000 eV
# -----------------------------------------------------------------------
#      e        sDOS           pDOS          dDOS          fDOS    @#
   -30.0000  4.969292E-03  5.862235E-04  9.895564E-05  5.424794E-05
   -29.5500  6.740092E-03  6.229418E-04  1.016381E-04  5.541097E-05
   -29.1000  9.804638E-03  6.693420E-04  1.050752E-04  5.696413E-05
   -28.6500  1.634538E-02  7.420332E-04  1.104433E-04  5.941277E-05
   -28.2000  4.455513E-02  9.998770E-04  1.260826E-04  6.552351E-05
   -27.7500  1.193112E-01  1.860261E-03  1.922171E-04  8.776785E-05
   -27.3000  2.332648E-01  2.454048E-03  3.968659E-04  1.835887E-04
   -26.8500  8.164152E-01  3.221061E-03  4.275443E-04  4.056695E-04
   -26.4000  1.886611E+00  3.101109E-03  6.057906E-04  5.258129E-04
   -25.9500  4.203081E-01  1.602686E-03  3.174812E-04  1.529642E-04
   -25.5000  6.659582E-02  1.135309E-03  1.440340E-04  7.678961E-05
   -25.0500  2.814965E-02  1.160046E-03  1.343255E-04  6.930050E-05
   -24.6000  1.956155E-02  1.867323E-03  5.856111E-04  5.172863E-04
   -24.1500  1.197195E-02  1.471169E-03  1.595053E-04  7.647071E-05
   -23.7000  7.293910E-03  1.435592E-03  1.385852E-04  6.740182E-05
   -23.2500  5.304465E-03  1.551038E-03  1.404458E-04  6.740318E-05
   -22.8000  4.080580E-03  1.697812E-03  1.441895E-04  6.822064E-05
   -22.3500  3.248342E-03  1.872396E-03  1.487314E-04  6.934587E-05
   -21.9000  2.654655E-03  2.080246E-03  1.539680E-04  7.070063E-05
   -21.4500  2.215927E-03  2.329738E-03  1.599265E-04  7.226078E-05
   -21.0000  5.056410E-03 -2.635588E-01  5.177153E-01 -9.918778E-01
   -20.5500  1.626288E-03  3.008597E-03  1.746748E-04  7.612547E-05
   -20.1000  1.424638E-03  3.482400E-03  1.840302E-04  7.855373E-05
   -19.6500  1.264802E-03  4.094953E-03  1.952229E-04  8.140082E-05
   -19.2000  1.399997E-02 -1.088807E-02  2.361911E-03 -2.602721E-04
   -18.7500  1.038700E-03  6.050684E-03  2.266052E-04  8.904866E-05
   -18.3000  9.671102E-04  7.747628E-03  2.517206E-04  9.499941E-05
   -17.8500  9.166815E-04  1.044933E-02  2.857265E-04  1.022214E-04
   -17.4000  9.358614E-04  1.592249E-02  3.686055E-04  1.222142E-04
   -16.9500  1.228234E-03  3.237869E-02  6.338565E-04  2.813377E-04
   -16.5000  4.561101E-03  9.949658E-02  2.398497E-03  5.081765E-04
   -16.0500  6.782421E-03  2.861857E-01  3.255133E-03  7.396384E-04
   -15.6000  2.143454E-02  1.199534E-01  2.889205E-04  7.480426E-05
   -15.1500  7.858583E-03  5.967426E-01  8.148780E-03  2.079667E-03
   -14.7000  8.081466E-03  5.417548E-01  7.572154E-03  2.039299E-03
   -14.2500  7.489469E-03  8.550031E-01  8.656466E-03  2.296094E-03
   -13.8000  1.588574E-02  1.602476E+00  5.851014E-04  8.287007E-05
   -13.3500  1.137800E-02  5.365206E-01  7.116644E-03  1.765398E-03
   -12.9000  1.844055E-02  5.597863E-01  8.392951E-03  2.212540E-03
   -12.4500  9.023443E-03  7.521039E-01  8.240211E-03  1.804181E-03
   -12.0000  6.885560E-03  7.085428E-01  5.416606E-03  1.376962E-03
   -11.5500  5.147786E-03  6.695549E-01  3.750104E-03  9.399379E-04
   -11.1000  3.186336E-03  3.668799E-01  3.443618E-03  7.563583E-04
   -10.6500  3.267389E-03  1.403541E-01  4.682628E-03  8.694540E-04
   -10.2000  5.164222E-03  3.281599E-01  2.724969E-03  1.979689E-04
    -9.7500  7.765897E-03  1.465217E-01  2.479230E-02  4.262072E-03
    -9.3000  7.758287E-03  2.116939E-01  3.085021E-02  6.397759E-03
    -8.8500  7.998474E-03  1.890606E-01  2.455650E-02  6.635300E-03
    -8.4000  7.218965E-03  1.786277E-01  5.373652E-03  3.337094E-04
    -7.9500  1.089699E-02  2.686587E-01  1.343502E-02  9.964355E-03
    -7.5000  1.363609E-02  2.337126E-01  7.895872E-03  6.836748E-03
    -7.0500  1.123013E-02  1.159089E-01  5.879652E-03  5.104758E-03
    -6.6000  1.665229E-02  5.760826E-02  5.079710E-03  1.605022E-03
    -6.1500  2.043493E-02  4.705731E-02  8.844796E-03  1.441038E-03
    -5.7000  2.772585E-02  4.457603E-02  1.382865E-02  1.915891E-03
    -5.2500  3.865082E-02  6.970888E-02  2.226410E-02  3.649292E-03
    -4.8000  9.778167E-03  9.338430E-02  1.136625E-02  9.179204E-04
    -4.3500  3.457275E-02  2.525860E-01  3.105415E-02  6.448032E-03
    -3.9000  3.124750E-02  2.507549E-01  2.976350E-02  4.739075E-03
    -3.4500  2.706046E-02  2.487434E-01  2.897959E-02  4.351960E-03
    -3.0000  1.184422E-02  9.927966E-02  1.649397E-02  1.373332E-03
    -2.5500  1.830354E-02  1.043689E-01  1.128311E-02  2.107661E-03
    -2.1000  1.968565E-02  8.636721E-02  1.071198E-02  1.798987E-03
    -1.6500  2.310728E-02  8.694496E-02  1.087612E-02  1.743162E-03
    -1.2000  2.447561E-02  9.324465E-02  1.237343E-02  1.774297E-03
    -0.7500  2.376995E-02  1.018147E-01  1.551416E-02  1.746114E-03
    -0.3000  2.273792E-02  1.092392E-01  2.009719E-02  1.779420E-03
     0.1500  2.147526E-02  1.132069E-01  2.324894E-02  1.921930E-03
     0.6000  1.217532E-02  7.437230E-02  2.715158E-02  2.747833E-03
     1.0500  1.502659E-02  1.356931E-01  2.842494E-02  2.564338E-03
     1.5000  1.089558E-02  1.412190E-01  3.238026E-02  3.068528E-03
     1.9500  9.331481E-03  1.418026E-01  3.700341E-02  3.512081E-03
     2.4000  1.237739E-02  6.704681E-02  3.331346E-02  3.684684E-03
     2.8500  6.694585E-03  1.060811E-01  4.151573E-02  4.150488E-03
     3.3000  5.784703E-03  8.668265E-02  3.956878E-02  4.515862E-03
     3.7500  5.006525E-03  7.273731E-02  3.856838E-02  4.799939E-03
     4.2000  4.742920E-03  6.537912E-02  4.093635E-02  5.148838E-03
     4.6500  4.882045E-03  6.492778E-02  4.374789E-02  5.685706E-03
     5.1000  5.164556E-03  6.269366E-02  4.281030E-02  5.957269E-03
     5.5500  5.467651E-03  5.651826E-02  4.126435E-02  6.070233E-03
     6.0000  1.284719E-02  5.787970E-02  4.694518E-02  6.107686E-03
     6.4500  6.336932E-03  4.677483E-02  4.048180E-02  6.450812E-03
     6.9000  6.752572E-03  4.350040E-02  4.058769E-02  6.601081E-03
     7.3500  6.960602E-03  4.104062E-02  4.122826E-02  6.654306E-03
     7.8000  1.310838E-02  5.511069E-02  5.424448E-02  7.606875E-03
     8.2500  7.199686E-03  4.046495E-02  4.717488E-02  7.174097E-03
     8.7000  7.388604E-03  4.280617E-02  5.255355E-02  7.851032E-03
     9.1500  7.637789E-03  4.444278E-02  5.693767E-02  8.440596E-03
     9.6000  7.909021E-03  4.397555E-02  5.930498E-02  8.741247E-03
    10.0500  8.103592E-03  4.375426E-02  6.223224E-02  9.203024E-03
    10.5000  8.220004E-03  4.448984E-02  6.672385E-02  9.784300E-03
    10.9500  8.368816E-03  4.439186E-02  6.977557E-02  1.034183E-02
    11.4000  1.366451E-02  5.187628E-02  6.933283E-02  1.119630E-02
    11.8500  8.759068E-03  3.846174E-02  6.687071E-02  1.155111E-02
    12.3000  8.798369E-03  3.730695E-02  6.630394E-02  1.232574E-02
    12.7500  8.889246E-03  3.758030E-02  6.719324E-02  1.307928E-02
    13.2000  9.285576E-03  3.841575E-02  6.839512E-02  1.371786E-02
    13.6500  1.001738E-02  3.952755E-02  7.008063E-02  1.433875E-02
    14.1000  1.084730E-02  4.040476E-02  7.270442E-02  1.495073E-02
    14.5500  1.146238E-02  4.017571E-02  7.586583E-02  1.544368E-02
    15.0000  1.187897E-02  3.891312E-02  7.902295E-02  1.576745E-02
