#  Fermi level (eV):  -8.604
#  Charge transfer :  -0.203
#    Electron counts for each orbital momentum:
#       0      1.825
#       1      4.276
#       2      0.103
#       3      0.000
#  Number of atoms in cluster: 109
#  Lorentzian broadening with HWHH     0.1000 eV
# -----------------------------------------------------------------------
#      e        sDOS           pDOS          dDOS          fDOS    @#
   -30.0000  2.078947E-02  7.482802E-04  1.179646E-04  6.006618E-05
   -29.5500  4.657369E-02  8.459189E-04  1.333670E-04  6.459170E-05
   -29.1000  3.312803E-01  1.380900E-03  2.665959E-04  8.905856E-05
   -28.6500  8.317105E-01  2.191753E-03  4.797536E-04  1.986755E-04
   -28.2000  1.138928E+00  3.007970E-03  5.742863E-04  3.571961E-04
   -27.7500  8.509942E-01  2.754547E-03  6.368614E-04  2.425533E-04
   -27.3000  8.036975E-02  1.367470E-03  1.921240E-04  8.445723E-05
   -26.8500  3.121955E-02  1.499123E-03  1.896377E-04  7.785753E-05
   -26.4000  1.885864E-02  1.964823E-03  2.390690E-04  8.500088E-05
   -25.9500  1.688112E-02  3.693230E-03  4.452421E-04  1.185190E-04
   -25.5000  4.182851E-02  3.393126E-02  3.845777E-03  5.866130E-04
   -25.0500  2.778627E-01  3.248902E-02  4.983328E-03  1.177465E-03
   -24.6000  5.870933E-03  2.232699E-03  9.809231E-04  1.488608E-03
   -24.1500  1.212783E-02  2.787880E-03  3.044468E-04  1.052633E-04
   -23.7000  6.204338E-03  2.321917E-03  2.174210E-04  8.550494E-05
   -23.2500  4.082815E-03  2.289480E-03  1.899208E-04  7.987612E-05
   -22.8000  3.012369E-03  2.409286E-03  1.798054E-04  7.827115E-05
   -22.3500  2.368221E-03  2.620557E-03  1.769579E-04  7.837702E-05
   -21.9000  1.938315E-03  2.912035E-03  1.779539E-04  7.943697E-05
   -21.4500  1.632081E-03  3.291955E-03  1.814836E-04  8.122090E-05
   -21.0000 -2.177120E-03  5.990232E-02  1.500577E-02 -4.331655E-03
   -20.5500  1.229624E-03  4.420965E-03  1.944333E-04  8.675136E-05
   -20.1000  1.093924E-03  5.273986E-03  2.041135E-04  9.089682E-05
   -19.6500  9.889683E-04  6.460503E-03  2.170877E-04  9.676486E-05
   -19.2000  9.297471E-03 -1.631369E-02  1.500779E-04  5.970869E-05
   -18.7500  8.728873E-04  1.134325E-02  2.772445E-04  1.353562E-04
   -18.3000  9.228874E-04  1.811425E-02  3.396143E-04  3.015363E-04
   -17.8500  4.060625E-03  5.548076E-02  7.132078E-03  2.929506E-03
   -17.4000  2.820629E-03  1.139791E-01  1.288110E-03  8.677940E-04
   -16.9500  5.350210E-03  2.620392E-01  2.754397E-03  1.537972E-03
   -16.5000  3.416564E-03  6.218360E-01  2.501521E-03  2.142207E-03
   -16.0500  4.032598E-03  1.032768E+00  3.634591E-03  3.843968E-03
   -15.6000  1.659519E-02  8.220244E-01  5.277464E-04  8.887629E-05
   -15.1500  3.634928E-03  6.800692E-01  6.454594E-03  2.106410E-03
   -14.7000  5.019991E-03  5.993364E-01  8.778257E-03  1.656221E-03
   -14.2500  7.400346E-03  8.820895E-01  7.837791E-03  2.558374E-03
   -13.8000  1.143190E-02  9.847958E-01  1.044021E-03  1.047866E-04
   -13.3500  9.668498E-03  8.759117E-01  3.816674E-03  8.900523E-04
   -12.9000  9.488543E-03  5.571067E-01  3.939419E-03  5.955631E-04
   -12.4500  3.852625E-03  2.470434E-01  4.800711E-03  8.877618E-04
   -12.0000  3.865567E-03  1.976507E-01  7.589126E-03  1.296180E-03
   -11.5500  3.792254E-03  1.337827E-01  1.502088E-02  1.976740E-03
   -11.1000  5.147429E-03  1.832055E-01  2.031309E-02  2.860608E-03
   -10.6500  8.626099E-03  2.071265E-01  2.312810E-02  3.638534E-03
   -10.2000  7.574390E-03  2.494452E-01  5.304960E-03  2.770235E-04
    -9.7500  1.288846E-02  3.169424E-01  2.177957E-02  5.738208E-03
    -9.3000  1.819590E-02  2.796449E-01  2.425725E-02  7.320719E-03
    -8.8500  2.226260E-02  2.259220E-01  2.297914E-02  6.356759E-03
    -8.4000  8.699774E-03  1.519229E-01  9.033429E-03  4.768839E-04
    -7.9500  1.270543E-02  1.551002E-01  1.427204E-02  4.727147E-03
    -7.5000  1.212387E-02  1.309580E-01  1.284490E-02  4.239237E-03
    -7.0500  9.715588E-03  1.126935E-01  9.608355E-03  3.362766E-03
    -6.6000  1.169721E-02  9.765371E-02  8.726599E-03  2.747020E-03
    -6.1500  1.498930E-02  1.049816E-01  1.066873E-02  2.953115E-03
    -5.7000  2.241131E-02  1.351117E-01  1.607898E-02  3.735830E-03
    -5.2500  2.136707E-02  1.293012E-01  1.976445E-02  3.571072E-03
    -4.8000  1.149781E-02  8.176350E-02  1.596154E-02  1.364142E-03
    -4.3500  2.290765E-02  1.007371E-01  1.681430E-02  3.289648E-03
    -3.9000  2.353080E-02  1.085830E-01  1.570134E-02  3.243841E-03
    -3.4500  2.420627E-02  1.112485E-01  1.602020E-02  3.606544E-03
    -3.0000  1.206236E-02  8.467823E-02  2.131264E-02  1.900955E-03
    -2.5500  2.509446E-02  1.201221E-01  1.895526E-02  4.385674E-03
    -2.1000  1.906692E-02  1.040070E-01  1.994966E-02  4.782621E-03
    -1.6500  1.727503E-02  8.084431E-02  1.776922E-02  4.103425E-03
    -1.2000  1.602896E-02  6.496098E-02  1.681722E-02  3.273287E-03
    -0.7500  1.455680E-02  6.455842E-02  1.821207E-02  3.084397E-03
    -0.3000  1.412994E-02  6.865052E-02  1.986921E-02  3.073988E-03
     0.1500  1.406983E-02  7.338581E-02  2.198635E-02  3.082967E-03
     0.6000  1.249703E-02  6.730134E-02  3.345595E-02  3.593159E-03
     1.0500  1.409336E-02  7.582837E-02  2.749770E-02  2.844927E-03
     1.5000  1.477426E-02  7.536388E-02  3.027885E-02  2.839812E-03
     1.9500  1.487653E-02  7.606826E-02  3.307522E-02  2.999753E-03
     2.4000  1.274613E-02  6.206298E-02  4.031817E-02  4.712855E-03
     2.8500  1.276864E-02  7.741317E-02  3.810404E-02  3.648966E-03
     3.3000  1.096745E-02  7.816043E-02  4.048413E-02  3.955276E-03
     3.7500  9.647551E-03  7.948108E-02  4.246584E-02  4.266546E-03
     4.2000  8.952962E-03  7.601714E-02  4.442710E-02  4.589956E-03
     4.6500  8.646026E-03  6.930382E-02  4.689585E-02  4.933630E-03
     5.1000  8.521929E-03  6.405666E-02  4.952029E-02  5.328453E-03
     5.5500  8.631115E-03  6.162649E-02  5.282675E-02  5.795293E-03
     6.0000  1.329540E-02  5.556686E-02  5.518105E-02  7.542775E-03
     6.4500  8.926869E-03  6.277668E-02  6.295951E-02  7.001059E-03
     6.9000  8.841319E-03  5.956843E-02  6.431416E-02  7.503025E-03
     7.3500  8.661811E-03  5.402046E-02  6.391096E-02  7.777012E-03
     7.8000  1.358836E-02  5.368740E-02  6.297628E-02  9.263101E-03
     8.2500  8.798420E-03  4.792269E-02  6.724752E-02  8.282337E-03
     8.7000  9.309794E-03  4.765232E-02  7.150603E-02  8.666326E-03
     9.1500  9.960093E-03  4.840328E-02  7.627221E-02  9.078990E-03
     9.6000  1.060353E-02  4.955103E-02  8.000963E-02  9.462966E-03
    10.0500  1.103213E-02  5.030562E-02  8.210979E-02  9.868787E-03
    10.5000  1.106754E-02  5.035885E-02  8.364705E-02  1.040728E-02
    10.9500  1.082370E-02  5.006581E-02  8.594163E-02  1.106245E-02
    11.4000  1.419185E-02  5.171759E-02  7.873521E-02  1.332229E-02
    11.8500  1.093949E-02  5.050540E-02  9.227316E-02  1.231315E-02
    12.3000  1.156479E-02  5.103273E-02  9.414987E-02  1.303979E-02
    12.7500  1.235814E-02  5.046463E-02  9.464996E-02  1.394104E-02
    13.2000  1.305817E-02  4.837988E-02  9.379228E-02  1.491861E-02
    13.6500  1.348976E-02  4.581404E-02  9.222712E-02  1.586745E-02
    14.1000  1.374120E-02  4.384496E-02  9.130578E-02  1.682812E-02
    14.5500  1.399400E-02  4.270340E-02  9.171769E-02  1.790177E-02
    15.0000  1.432096E-02  4.217529E-02  9.285984E-02  1.906708E-02
