#  Fermi level (eV):  -6.175
#  Charge transfer :  -0.169
#    Electron counts for each orbital momentum:
#       0      1.820
#       1      4.244
#       2      0.105
#       3      0.000
#  Number of atoms in cluster: 144
#  Lorentzian broadening with HWHH     0.1000 eV
# -----------------------------------------------------------------------
#      e        sDOS           pDOS          dDOS          fDOS    @#
   -30.0000  5.199148E-03  5.914345E-04  9.930219E-05  5.442805E-05
   -29.5500  7.109315E-03  6.289053E-04  1.020596E-04  5.561356E-05
   -29.1000  1.048203E-02  6.770107E-04  1.057056E-04  5.723828E-05
   -28.6500  1.805145E-02  7.569752E-04  1.119206E-04  5.999538E-05
   -28.2000  6.061087E-02  1.146035E-03  1.379608E-04  6.975913E-05
   -27.7500  1.063485E-01  2.026281E-03  2.427251E-04  1.018528E-04
   -27.3000  2.365299E-01  1.999273E-03  3.824045E-04  1.925643E-04
   -26.8500  8.916426E-01  2.806186E-03  4.300947E-04  3.627470E-04
   -26.4000  1.765453E+00  3.037239E-03  4.607073E-04  4.087609E-04
   -25.9500  2.673021E-01  1.372000E-03  1.960666E-04  1.141611E-04
   -25.5000  5.487907E-02  1.134087E-03  1.372066E-04  7.360061E-05
   -25.0500  2.562256E-02  1.218565E-03  1.453735E-04  7.299072E-05
   -24.6000  1.780298E-02  1.875914E-03  5.785547E-04  5.086501E-04
   -24.1500  1.192964E-02  1.518131E-03  1.653472E-04  7.890448E-05
   -23.7000  7.025557E-03  1.458113E-03  1.396942E-04  6.778494E-05
   -23.2500  5.109555E-03  1.572861E-03  1.409455E-04  6.756054E-05
   -22.8000  3.944395E-03  1.721321E-03  1.445224E-04  6.833691E-05
   -22.3500  3.150820E-03  1.898718E-03  1.489865E-04  6.944500E-05
   -21.9000  2.582787E-03  2.110261E-03  1.541654E-04  7.078318E-05
   -21.4500  2.161716E-03  2.364447E-03  1.600674E-04  7.232432E-05
   -21.0000  1.105591E-02 -2.077803E-01  4.849837E-01 -8.695032E-01
   -20.5500  1.593287E-03  3.056919E-03  1.746450E-04  7.611907E-05
   -20.1000  1.398376E-03  3.540500E-03  1.838666E-04  7.848983E-05
   -19.6500  1.243673E-03  4.165974E-03  1.948725E-04  8.126030E-05
   -19.2000  1.460669E-02 -1.673559E-02  2.241551E-03 -2.736656E-04
   -18.7500  1.025156E-03  6.164071E-03  2.256095E-04  8.862120E-05
   -18.3000  9.565420E-04  7.894473E-03  2.498631E-04  9.423949E-05
   -17.8500  9.104198E-04  1.065402E-02  2.832436E-04  1.009350E-04
   -17.4000  9.313494E-04  1.613345E-02  3.597267E-04  1.216493E-04
   -16.9500  1.238329E-03  3.269781E-02  6.287108E-04  2.862642E-04
   -16.5000  4.429380E-03  9.841952E-02  2.532504E-03  5.748309E-04
   -16.0500  5.644509E-03  3.406184E-01  3.041433E-03  7.500293E-04
   -15.6000  2.784601E-02  1.685252E-01  2.646494E-04  7.429683E-05
   -15.1500  8.691092E-03  6.145405E-01  7.503566E-03  1.952326E-03
   -14.7000  7.107774E-03  6.012543E-01  8.315519E-03  2.106291E-03
   -14.2500  7.371265E-03  8.504958E-01  8.021624E-03  2.222731E-03
   -13.8000  1.376691E-02  1.742578E+00  5.579998E-04  8.377306E-05
   -13.3500  1.065205E-02  5.564757E-01  7.059487E-03  1.732017E-03
   -12.9000  1.844379E-02  5.518179E-01  8.355636E-03  2.112127E-03
   -12.4500  7.920844E-03  7.378573E-01  7.083379E-03  1.570388E-03
   -12.0000  6.999764E-03  8.024844E-01  4.867633E-03  1.192833E-03
   -11.5500  4.471075E-03  6.044748E-01  3.428056E-03  8.270292E-04
   -11.1000  2.721021E-03  1.673687E-01  3.061750E-03  6.640315E-04
   -10.6500  4.143186E-03  1.214301E-01  6.268228E-03  9.669793E-04
   -10.2000  3.476620E-03  2.915116E-01  3.256131E-03  2.046113E-04
    -9.7500  8.865218E-03  1.595027E-01  2.626815E-02  4.159636E-03
    -9.3000  8.353021E-03  2.113766E-01  2.720363E-02  5.711710E-03
    -8.8500  7.298447E-03  2.235376E-01  2.458700E-02  8.795762E-03
    -8.4000  8.605241E-03  1.520101E-01  4.331811E-03  3.257205E-04
    -7.9500  9.713391E-03  2.680345E-01  1.630833E-02  9.108020E-03
    -7.5000  9.503082E-03  1.382538E-01  8.361773E-03  6.904840E-03
    -7.0500  9.904337E-03  5.820422E-02  4.183433E-03  2.792692E-03
    -6.6000  1.362489E-02  3.614614E-02  3.837216E-03  1.492107E-03
    -6.1500  2.171890E-02  3.431881E-02  7.057097E-03  1.848809E-03
    -5.7000  3.909872E-02  6.571664E-02  2.012687E-02  3.249852E-03
    -5.2500  5.086192E-02  2.114266E-01  3.993274E-02  5.974846E-03
    -4.8000  9.391863E-03  8.764849E-02  1.239009E-02  8.817523E-04
    -4.3500  2.785500E-02  2.170568E-01  2.351842E-02  4.139065E-03
    -3.9000  2.733293E-02  2.276380E-01  2.705447E-02  3.660581E-03
    -3.4500  1.666913E-02  1.523498E-01  1.408345E-02  2.436392E-03
    -3.0000  1.184340E-02  9.784450E-02  1.668099E-02  1.393571E-03
    -2.5500  1.358558E-02  1.322685E-01  1.032863E-02  2.045565E-03
    -2.1000  1.442191E-02  1.109907E-01  1.045172E-02  1.539765E-03
    -1.6500  1.389063E-02  7.591004E-02  1.282283E-02  1.352590E-03
    -1.2000  2.301282E-02  6.725926E-02  1.866496E-02  1.743969E-03
    -0.7500  3.372516E-02  6.958512E-02  2.001980E-02  1.983683E-03
    -0.3000  3.452643E-02  8.025021E-02  2.104714E-02  2.099742E-03
     0.1500  2.953778E-02  9.793819E-02  2.119515E-02  2.184002E-03
     0.6000  1.219649E-02  7.359858E-02  2.744201E-02  2.786959E-03
     1.0500  1.323386E-02  1.516128E-01  2.814382E-02  2.574590E-03
     1.5000  1.037128E-02  1.565774E-01  3.292590E-02  2.973675E-03
     1.9500  8.731224E-03  1.501850E-01  3.679087E-02  3.293891E-03
     2.4000  1.240836E-02  6.646935E-02  3.366020E-02  3.736195E-03
     2.8500  6.472779E-03  1.178853E-01  3.971724E-02  3.733000E-03
     3.3000  5.631247E-03  1.008758E-01  4.021192E-02  4.084138E-03
     3.7500  4.899505E-03  8.125652E-02  4.213851E-02  4.317137E-03
     4.2000  4.200866E-03  6.648929E-02  4.496126E-02  4.680539E-03
     4.6500  3.815087E-03  5.990759E-02  4.881871E-02  5.338625E-03
     5.1000  3.696191E-03  5.853160E-02  5.087271E-02  6.108644E-03
     5.5500  3.675550E-03  5.334329E-02  4.934647E-02  6.292207E-03
     6.0000  1.289538E-02  5.757150E-02  4.740797E-02  6.190017E-03
     6.4500  4.434109E-03  4.370954E-02  4.963497E-02  7.204838E-03
     6.9000  4.885229E-03  4.301404E-02  4.786439E-02  7.777190E-03
     7.3500  5.195363E-03  4.123843E-02  4.570752E-02  7.848947E-03
     7.8000  1.316402E-02  5.489964E-02  5.476447E-02  7.707598E-03
     8.2500  5.826106E-03  3.971784E-02  4.776994E-02  8.173779E-03
     8.7000  6.249570E-03  3.946174E-02  4.861529E-02  8.436582E-03
     9.1500  6.672640E-03  3.852453E-02  4.926106E-02  8.665168E-03
     9.6000  7.004093E-03  3.762432E-02  5.084570E-02  8.938929E-03
    10.0500  7.330729E-03  3.703313E-02  5.250334E-02  9.304777E-03
    10.5000  7.830112E-03  3.664736E-02  5.331178E-02  9.649176E-03
    10.9500  8.734448E-03  3.628526E-02  5.362078E-02  9.924981E-03
    11.4000  1.373277E-02  5.181462E-02  6.995891E-02  1.133942E-02
    11.8500  1.262234E-02  3.725589E-02  5.701804E-02  1.139139E-02
    12.3000  1.415104E-02  3.890640E-02  6.204662E-02  1.227675E-02
    12.7500  1.386637E-02  4.097375E-02  6.831173E-02  1.278933E-02
    13.2000  1.297332E-02  4.329004E-02  7.274443E-02  1.302394E-02
    13.6500  1.229785E-02  4.387288E-02  7.497340E-02  1.349673E-02
    14.1000  1.174768E-02  4.211012E-02  7.763965E-02  1.436147E-02
    14.5500  1.138367E-02  3.953611E-02  8.145958E-02  1.498271E-02
    15.0000  1.147997E-02  3.715069E-02  8.592239E-02  1.499354E-02
