#  Fermi level (eV):  -6.175
#  Charge transfer :   0.047
#    Electron counts for each orbital momentum:
#       0      0.357
#       1      6.424
#       2      1.172
#       3      0.000
#  Number of atoms in cluster: 146
#  Lorentzian broadening with HWHH     0.1000 eV
# -----------------------------------------------------------------------
#      e        sDOS           pDOS          dDOS          fDOS    @#
   -30.0000  6.731680E-04  8.724220E-03  8.498468E-04  4.532397E-04
   -29.5500  7.287587E-04  1.115726E-02  9.623093E-04  5.018429E-04
   -29.1000  8.720357E-04  1.524701E-02  1.145559E-03  5.797918E-04
   -28.6500  1.323905E-03  2.408551E-02  1.509752E-03  7.301908E-04
   -28.2000  5.090191E-03  6.986244E-02  2.862654E-03  1.241473E-03
   -27.7500  9.488454E-03  2.134744E-01  7.439425E-03  3.557735E-03
   -27.3000  1.611306E-02  5.224531E-01  2.056860E-02  9.946324E-03
   -26.8500  1.999963E-02  5.520506E-01  4.937143E-02  1.944785E-02
   -26.4000  2.103656E-02  4.210104E-01  7.370421E-02  3.718413E-02
   -25.9500  4.624919E-03  1.444795E-01  1.520027E-02  8.605900E-03
   -25.5000  1.294953E-03  1.721719E-01  3.895022E-03  2.173660E-03
   -25.0500  9.948364E-04  6.195166E-01  4.254719E-03  3.277827E-03
   -24.6000  2.627270E-03  5.289589E+00  1.232260E-02  1.133444E-02
   -24.1500  1.962621E-03  3.975542E+00  1.543869E-02  9.490368E-03
   -23.7000  6.306130E-04  4.916020E-01  2.578757E-03  1.882719E-03
   -23.2500  5.023238E-04  1.398641E-01  1.661724E-03  9.202074E-04
   -22.8000  4.606044E-04  6.848421E-02  1.459272E-03  7.400398E-04
   -22.3500  4.426658E-04  4.119700E-02  1.402742E-03  6.777532E-04
   -21.9000  4.367322E-04  2.773523E-02  1.404064E-03  6.551075E-04
   -21.4500  4.391345E-04  2.007364E-02  1.437711E-03  6.511372E-04
   -21.0000  4.488933E-04  1.529315E-02  1.495551E-03  6.590418E-04
   -20.5500  4.662495E-04  1.211484E-02  1.575517E-03  6.761626E-04
   -20.1000  4.923662E-04  9.904161E-03  1.679692E-03  7.024367E-04
   -19.6500  5.300282E-04  8.316512E-03  1.810856E-03  7.367506E-04
   -19.2000  5.836267E-04  7.157189E-03  1.979512E-03  7.829011E-04
   -18.7500  6.601586E-04  6.305357E-03  2.191908E-03  8.364310E-04
   -18.3000  7.774444E-04  5.713633E-03  2.501735E-03  9.283242E-04
   -17.8500  9.625971E-04  5.335275E-03  2.917861E-03  1.028565E-03
   -17.4000  1.335416E-03  5.366574E-03  3.898296E-03  1.429806E-03
   -16.9500  2.337016E-03  6.495907E-03  7.050291E-03  3.115921E-03
   -16.5000  1.802212E-02  6.671179E-02  1.552215E-01  5.882242E-02
   -16.0500  5.426294E-02  4.605791E-02  6.903202E-02  1.460841E-02
   -15.6000  2.859380E-02  4.520076E-02  4.722061E-02  1.961956E-02
   -15.1500  4.657916E-02  6.001383E-02  7.843068E-02  1.784159E-02
   -14.7000  6.114287E-02  8.737346E-02  1.364148E-01  3.127895E-02
   -14.2500  4.464996E-02  8.493257E-02  1.192922E-01  3.559678E-02
   -13.8000  3.744151E-02  9.360991E-02  1.217423E-01  3.000029E-02
   -13.3500  3.715802E-02  1.058477E-01  1.938031E-01  3.972798E-02
   -12.9000  2.848803E-02  8.021848E-02  1.594185E-01  5.707625E-02
   -12.4500  2.545494E-02  7.299798E-02  1.562856E-01  6.719874E-02
   -12.0000  3.428168E-02  6.493751E-02  1.484539E-01  7.304143E-02
   -11.5500  2.487832E-02  5.157864E-02  8.458205E-02  4.685494E-02
   -11.1000  1.243543E-02  2.959122E-02  4.245268E-02  2.108228E-02
   -10.6500  9.812152E-03  1.859274E-02  3.538673E-02  1.298808E-02
   -10.2000  1.506854E-02  2.090033E-02  5.595114E-02  1.725745E-02
    -9.7500  1.523798E-02  2.595022E-02  8.097766E-02  2.425760E-02
    -9.3000  1.622289E-02  3.003785E-02  7.273134E-02  2.566302E-02
    -8.8500  1.918178E-02  2.746836E-02  7.513681E-02  2.331469E-02
    -8.4000  2.194823E-02  2.582469E-02  6.671879E-02  2.341493E-02
    -7.9500  1.915392E-02  2.571363E-02  6.760471E-02  1.447979E-02
    -7.5000  2.155047E-02  2.057846E-02  6.387400E-02  9.996593E-03
    -7.0500  2.675254E-02  2.412354E-02  8.048231E-02  1.095831E-02
    -6.6000  7.133118E-02  6.421435E-02  1.888527E-01  2.058651E-02
    -6.1500  4.425682E-02  6.760247E-02  2.877737E-01  2.560956E-02
    -5.7000  3.528481E-02  5.678381E-02  4.810702E-01  2.572308E-02
    -5.2500  5.142730E-02  6.781663E-02  8.220259E-01  3.376788E-02
    -4.8000  4.576954E-02  6.604235E-02  6.749123E-01  4.381028E-02
    -4.3500  4.162304E-02  6.646800E-02  6.188788E-01  5.628565E-02
    -3.9000  3.913222E-02  6.348824E-02  5.782709E-01  5.280684E-02
    -3.4500  3.614436E-02  4.919742E-02  4.367649E-01  3.299822E-02
    -3.0000  3.841397E-02  5.136030E-02  6.643687E-01  3.267543E-02
    -2.5500  4.504930E-02  6.527419E-02  1.408845E+00  4.639221E-02
    -2.1000  5.990374E-02  6.164685E-02  1.625493E+00  5.107535E-02
    -1.6500  9.034602E-02  6.180645E-02  1.764473E+00  6.189763E-02
    -1.2000  7.422449E-02  7.069571E-02  1.633023E+00  5.526800E-02
    -0.7500  8.739389E-02  8.431298E-02  1.266765E+00  5.437595E-02
    -0.3000  1.104310E-01  9.822965E-02  1.214612E+00  5.636323E-02
     0.1500  1.312968E-01  1.249066E-01  7.910367E-01  5.824230E-02
     0.6000  1.540964E-01  1.370382E-01  4.324889E-01  5.748207E-02
     1.0500  1.337930E-01  1.223569E-01  3.073600E-01  6.103741E-02
     1.5000  1.092331E-01  1.260668E-01  2.559960E-01  7.802636E-02
     1.9500  1.022092E-01  1.529554E-01  2.545213E-01  1.139526E-01
     2.4000  9.540711E-02  1.608193E-01  2.451382E-01  1.331256E-01
     2.8500  8.777422E-02  1.389907E-01  2.556891E-01  1.526069E-01
     3.3000  7.967138E-02  1.284199E-01  2.984040E-01  1.952086E-01
     3.7500  7.714434E-02  1.444466E-01  3.017853E-01  2.128137E-01
     4.2000  7.425935E-02  1.761628E-01  2.949641E-01  2.026705E-01
     4.6500  6.766708E-02  2.200465E-01  3.047477E-01  2.077206E-01
     5.1000  5.979862E-02  2.459265E-01  2.890346E-01  2.258389E-01
     5.5500  5.292141E-02  2.447300E-01  2.446430E-01  2.447848E-01
     6.0000  4.737119E-02  2.525729E-01  2.162369E-01  2.582035E-01
     6.4500  4.511299E-02  2.680691E-01  1.983225E-01  2.656697E-01
     6.9000  4.645417E-02  2.979312E-01  1.844574E-01  2.784216E-01
     7.3500  4.765278E-02  3.040807E-01  1.717205E-01  2.972894E-01
     7.8000  4.402195E-02  2.748933E-01  1.646478E-01  3.233199E-01
     8.2500  3.949435E-02  2.479561E-01  1.638911E-01  3.453108E-01
     8.7000  3.616586E-02  2.310820E-01  1.659881E-01  3.589501E-01
     9.1500  3.205050E-02  2.141971E-01  1.661183E-01  3.694504E-01
     9.6000  2.762339E-02  1.883144E-01  1.644652E-01  3.830136E-01
    10.0500  2.463374E-02  1.601947E-01  1.644092E-01  4.054801E-01
    10.5000  2.310011E-02  1.409531E-01  1.655584E-01  4.324199E-01
    10.9500  2.196322E-02  1.283483E-01  1.649514E-01  4.517434E-01
    11.4000  2.090298E-02  1.207973E-01  1.667650E-01  4.659630E-01
    11.8500  2.060333E-02  1.182054E-01  1.773928E-01  4.836080E-01
    12.3000  2.156294E-02  1.199092E-01  1.994483E-01  5.080166E-01
    12.7500  2.279613E-02  1.211901E-01  2.240918E-01  5.369832E-01
    13.2000  2.214849E-02  1.163717E-01  2.301960E-01  5.570945E-01
    13.6500  2.187741E-02  1.131137E-01  2.269224E-01  5.651070E-01
    14.1000  2.323457E-02  1.128073E-01  2.220378E-01  5.683668E-01
    14.5500  2.528825E-02  1.136230E-01  2.194763E-01  5.757923E-01
    15.0000  2.616301E-02  1.139686E-01  2.191832E-01  5.866108E-01
