#  Fermi level (eV):  -7.357
#  Charge transfer :  -0.237
#    Electron counts for each orbital momentum:
#       0      1.789
#       1      4.337
#       2      0.109
#       3      0.000
#  Number of atoms in cluster: 109
#  Lorentzian broadening with HWHH     0.1000 eV
# -----------------------------------------------------------------------
#      e        sDOS           pDOS          dDOS          fDOS    @#
   -30.0000  8.409980E-03  6.400181E-04  1.072116E-04  5.419943E-05
   -29.5500  1.294313E-02  6.884139E-04  1.150080E-04  5.589382E-05
   -29.1000  2.346842E-02  7.568747E-04  1.307083E-04  5.863461E-05
   -28.6500  6.793240E-02  8.969283E-04  1.888560E-04  6.476619E-05
   -28.2000  4.765206E-01  2.036112E-03  7.007527E-04  1.012542E-04
   -27.7500  8.119457E-01  2.129439E-03  1.241873E-03  3.122730E-04
   -27.3000  9.120009E-01  4.380073E-03  2.080823E-03  4.521036E-04
   -26.8500  1.463212E+00  2.571238E-03  5.716673E-04  1.711095E-04
   -26.4000  1.059108E-01  1.274310E-03  1.875276E-04  7.880200E-05
   -25.9500  3.707255E-02  1.312751E-03  1.629683E-04  7.050089E-05
   -25.5000  2.082355E-02  1.609932E-03  1.772082E-04  7.281825E-05
   -25.0500  1.906856E-02  3.230118E-03  2.775821E-04  1.005703E-04
   -24.6000  1.082154E-01  1.982642E-02  1.847854E-03  3.921987E-04
   -24.1500  4.142814E-02  3.385666E-03  7.559521E-04  1.156529E-04
   -23.7000  9.297766E-03  1.994459E-03  2.226339E-04  7.564509E-05
   -23.2500  5.254274E-03  1.912276E-03  1.725607E-04  7.156209E-05
   -22.8000  3.700777E-03  2.013256E-03  1.608569E-04  7.137294E-05
   -22.3500  2.847864E-03  2.192512E-03  1.587305E-04  7.242521E-05
   -21.9000  2.298608E-03  2.433131E-03  1.604485E-04  7.416814E-05
   -21.4500  1.913241E-03  2.738510E-03  1.642667E-04  7.640993E-05
   -21.0000  1.629647E-03  3.127939E-03  1.697795E-04  7.940636E-05
   -20.5500  1.413354E-03  3.626079E-03  1.767599E-04  8.310537E-05
   -20.1000  1.243468E-03  4.267722E-03  1.849663E-04  8.730252E-05
   -19.6500  1.112156E-03  5.157445E-03  1.957447E-04  9.383161E-05
   -19.2000  1.005484E-03  6.363850E-03  2.082521E-04  1.009003E-04
   -18.7500  9.102636E-04  7.911122E-03  2.185639E-04  1.019966E-04
   -18.3000  9.621532E-04  1.356508E-02  2.808627E-04  2.393658E-04
   -17.8500 -5.428161E-04 -8.593799E-03 -6.305172E-04 -3.933725E-04
   -17.4000  7.702461E-04  2.400844E-02 -1.383218E-04 -7.452447E-05
   -16.9500  1.213091E-03  1.727034E-01  6.450373E-04  1.112544E-03
   -16.5000  3.498692E-03  7.229390E-01  2.976197E-03  5.278376E-03
   -16.0500  3.956180E-03  4.610494E-01  2.966409E-03  3.163675E-03
   -15.6000  6.593825E-03  2.403461E-01  4.563615E-03  1.221649E-03
   -15.1500  2.419172E-02  5.084826E-01  1.204744E-02  2.649676E-03
   -14.7000  8.043471E-03  5.122260E-01  8.345995E-03  2.762047E-03
   -14.2500  5.091955E-03  5.976697E-01  5.690983E-03  1.898365E-03
   -13.8000  5.748598E-03  9.128562E-01  4.627924E-03  1.585663E-03
   -13.3500  7.139474E-03  9.923488E-01  4.254926E-03  1.571472E-03
   -12.9000  5.955583E-03  6.004449E-01  5.989049E-03  2.263855E-03
   -12.4500  3.785150E-03  7.655584E-01  4.257543E-03  2.248878E-03
   -12.0000  6.775782E-03  3.893536E-01  4.857057E-03  1.359193E-03
   -11.5500  2.926195E-03  2.434091E-01  6.024944E-03  1.122267E-03
   -11.1000  1.638890E-03  3.810421E-01  1.435634E-02  1.354573E-03
   -10.6500  1.589957E-03  9.993628E-02  3.002221E-02  1.762102E-03
   -10.2000  2.237199E-03  2.072244E-01  1.556223E-02  2.668653E-03
    -9.7500  3.763605E-03  1.308442E-01  1.087740E-02  2.029006E-03
    -9.3000  1.423974E-02  1.726311E-01  1.739798E-02  2.596854E-03
    -8.8500  7.679891E-03  1.438527E-01  2.936185E-02  3.291329E-03
    -8.4000  4.266755E-03  1.344252E-01  1.419703E-02  3.419661E-03
    -7.9500  4.586526E-03  4.021709E-01  1.249178E-02  1.317461E-02
    -7.5000  6.068391E-03  3.399957E-01  2.374415E-02  1.157658E-02
    -7.0500  6.709447E-03  1.921512E-01  8.055824E-03  1.052736E-02
    -6.6000  9.842528E-03  9.882524E-02  7.515526E-03  2.820996E-03
    -6.1500  1.747252E-02  6.814052E-02  9.285688E-03  1.680639E-03
    -5.7000  2.970231E-02  5.769478E-02  1.237545E-02  1.634544E-03
    -5.2500  2.210525E-02  5.202213E-02  1.521697E-02  1.624528E-03
    -4.8000  2.110803E-02  4.669884E-02  2.337868E-02  1.789504E-03
    -4.3500  2.514484E-02  5.161807E-02  2.726169E-02  2.083145E-03
    -3.9000  2.923084E-02  7.535664E-02  2.051204E-02  3.298166E-03
    -3.4500  4.093547E-02  1.279999E-01  2.196102E-02  4.484860E-03
    -3.0000  4.585212E-02  1.287273E-01  2.683400E-02  3.618574E-03
    -2.5500  3.335675E-02  1.001299E-01  2.541355E-02  2.808835E-03
    -2.1000  2.273068E-02  9.238481E-02  2.299161E-02  2.706600E-03
    -1.6500  1.832428E-02  1.127180E-01  2.774362E-02  3.544202E-03
    -1.2000  1.503565E-02  1.557164E-01  2.977930E-02  4.813682E-03
    -0.7500  1.144175E-02  1.538612E-01  1.868855E-02  6.030719E-03
    -0.3000  1.240860E-02  1.666510E-01  1.780875E-02  8.431837E-03
     0.1500  1.640807E-02  8.889991E-02  2.143426E-02  4.278636E-03
     0.6000  1.617910E-02  6.994986E-02  2.352726E-02  3.099371E-03
     1.0500  1.187464E-02  6.856886E-02  2.190705E-02  2.995728E-03
     1.5000  1.029282E-02  7.518961E-02  2.302569E-02  3.245576E-03
     1.9500  1.062567E-02  8.969057E-02  2.460849E-02  3.704075E-03
     2.4000  1.252759E-02  1.019041E-01  2.540571E-02  3.918624E-03
     2.8500  1.224692E-02  8.978179E-02  2.572365E-02  3.235855E-03
     3.3000  1.154809E-02  8.189077E-02  2.648627E-02  2.903823E-03
     3.7500  1.282340E-02  8.321267E-02  3.070044E-02  3.010043E-03
     4.2000  1.463980E-02  7.448903E-02  3.603555E-02  3.395626E-03
     4.6500  1.430525E-02  6.388304E-02  3.804489E-02  3.860792E-03
     5.1000  1.213581E-02  5.810799E-02  3.728698E-02  4.216598E-03
     5.5500  1.012762E-02  5.384324E-02  3.662167E-02  4.433539E-03
     6.0000  8.842400E-03  4.942128E-02  3.704064E-02  4.604139E-03
     6.4500  8.339584E-03  4.678512E-02  3.893924E-02  4.891974E-03
     6.9000  8.999300E-03  4.752387E-02  4.387202E-02  5.434132E-03
     7.3500  1.146485E-02  5.183724E-02  5.291716E-02  6.160471E-03
     7.8000  1.349235E-02  5.785152E-02  6.245346E-02  6.805787E-03
     8.2500  1.227258E-02  6.379760E-02  6.775417E-02  7.246477E-03
     8.7000  1.050241E-02  7.207918E-02  6.966368E-02  7.767233E-03
     9.1500  9.357950E-03  8.300212E-02  7.517802E-02  8.905068E-03
     9.6000  8.896110E-03  8.043944E-02  8.269861E-02  9.972343E-03
    10.0500  9.964780E-03  6.500036E-02  8.863559E-02  9.562930E-03
    10.5000  1.276982E-02  5.716905E-02  9.671492E-02  9.311136E-03
    10.9500  1.038932E-02  5.370707E-02  8.260826E-02  9.305534E-03
    11.4000  8.088290E-03  5.611069E-02  7.133753E-02  9.575818E-03
    11.8500  7.183402E-03  7.230488E-02  7.056506E-02  1.044823E-02
    12.3000  6.845880E-03  6.042495E-02  7.653744E-02  1.128020E-02
    12.7500  6.842724E-03  4.959040E-02  7.772578E-02  1.227631E-02
    13.2000  7.264545E-03  4.384702E-02  7.762690E-02  1.354791E-02
    13.6500  8.216605E-03  3.969266E-02  7.864131E-02  1.505838E-02
    14.1000  9.670994E-03  3.733463E-02  7.930909E-02  1.693353E-02
    14.5500  1.120910E-02  3.578481E-02  7.981308E-02  1.862945E-02
    15.0000  1.214773E-02  3.377466E-02  7.967061E-02  1.915913E-02
