#  Fermi level (eV):  -7.841
#  Charge transfer :  -0.145
#    Electron counts for each orbital momentum:
#       0      1.780
#       1      4.255
#       2      0.114
#       3      0.000
#  Number of atoms in cluster: 106
#  Lorentzian broadening with HWHH     0.1000 eV
# -----------------------------------------------------------------------
#      e        sDOS           pDOS          dDOS          fDOS    @#
   -30.0000  1.455372E-02  6.989630E-04  1.146084E-04  5.534742E-05
   -29.5500  2.802092E-02  7.741731E-04  1.320942E-04  5.869725E-05
   -29.1000  1.045483E-01  9.571458E-04  2.118285E-04  6.853220E-05
   -28.6500  3.381732E-01  2.852291E-03  5.628699E-04  1.281994E-04
   -28.2000  6.214932E-01  2.892085E-03  8.940736E-04  3.384720E-04
   -27.7500  1.293696E+00  3.767444E-03  1.691537E-03  4.605199E-04
   -27.3000  7.853257E-01  2.385878E-03  5.339493E-04  2.175716E-04
   -26.8500  8.021996E-02  1.281964E-03  1.886752E-04  8.052813E-05
   -26.4000  3.192865E-02  1.348693E-03  1.700215E-04  7.146547E-05
   -25.9500  2.145467E-02  1.786670E-03  2.166104E-04  7.806833E-05
   -25.5000  7.536774E-02  8.284471E-03  1.156379E-03  2.184320E-04
   -25.0500  1.049945E-01  1.244287E-02  1.510665E-03  3.487904E-04
   -24.6000  1.747601E-02  3.230760E-03  3.612028E-04  1.003282E-04
   -24.1500  6.762452E-03  1.983032E-03  1.833522E-04  7.349716E-05
   -23.7000  4.396386E-03  1.938899E-03  1.597166E-04  7.035880E-05
   -23.2500  3.272823E-03  2.060913E-03  1.545325E-04  7.041578E-05
   -22.8000  2.590270E-03  2.257791E-03  1.548884E-04  7.158821E-05
   -22.3500  2.126531E-03  2.517340E-03  1.578232E-04  7.343422E-05
   -21.9000  1.790778E-03  2.845958E-03  1.624171E-04  7.581483E-05
   -21.4500  1.537752E-03  3.261670E-03  1.683288E-04  7.877775E-05
   -21.0000  1.342230E-03  3.796569E-03  1.756096E-04  8.255823E-05
   -20.5500  1.189165E-03  4.504132E-03  1.845435E-04  8.761732E-05
   -20.1000  1.069625E-03  5.461790E-03  1.960715E-04  9.410064E-05
   -19.6500  9.709984E-04  6.748851E-03  2.080793E-04  1.005087E-04
   -19.2000  8.872533E-04  8.945621E-03  2.210777E-04  1.202166E-04
   -18.7500  9.817000E-04  1.597576E-02  3.119671E-04  3.804622E-04
   -18.3000 -3.921720E-03 -3.300666E-02 -2.553845E-03 -2.370639E-04
   -17.8500  9.189804E-04  3.548571E-02  3.397813E-04  4.132553E-04
   -17.4000  1.419000E-03  1.058349E-01  6.064638E-04  7.266081E-04
   -16.9500  4.128797E-03  7.490228E-01  2.501679E-03  4.906674E-03
   -16.5000  7.776030E-03  6.810786E-01  3.460128E-03  4.532282E-03
   -16.0500  5.300069E-03  3.715885E-01  3.995716E-03  1.737483E-03
   -15.6000  2.368933E-02  4.907984E-01  1.161392E-02  2.618257E-03
   -15.1500  8.379056E-03  7.941039E-01  9.481999E-03  3.796898E-03
   -14.7000  5.753987E-03  7.005239E-01  8.875235E-03  2.005599E-03
   -14.2500  5.434829E-03  7.736218E-01  4.347532E-03  1.515243E-03
   -13.8000  8.870657E-03  8.117987E-01  4.030804E-03  1.390932E-03
   -13.3500  5.359212E-03  5.765056E-01  6.092980E-03  1.714405E-03
   -12.9000  4.069911E-03  6.552337E-01  5.179117E-03  2.281513E-03
   -12.4500  7.013076E-03  3.991692E-01  5.234159E-03  1.614960E-03
   -12.0000  2.879441E-03  3.689389E-01  8.118734E-03  1.350769E-03
   -11.5500  1.984237E-03  1.419355E-01  1.270879E-02  1.721812E-03
   -11.1000  2.108411E-03  1.050584E-01  2.695229E-02  2.724660E-03
   -10.6500  2.985510E-03  1.651058E-01  1.893669E-02  2.898814E-03
   -10.2000  3.933905E-03  1.221159E-01  1.493270E-02  2.533165E-03
    -9.7500  1.035518E-02  1.299584E-01  2.499418E-02  3.316814E-03
    -9.3000  9.497562E-03  1.413951E-01  2.726002E-02  3.735288E-03
    -8.8500  8.052105E-03  1.916984E-01  1.815783E-02  5.107235E-03
    -8.4000  7.161180E-03  4.343356E-01  1.796597E-02  1.167449E-02
    -7.9500  7.217287E-03  3.699929E-01  1.855446E-02  1.252419E-02
    -7.5000  7.461471E-03  1.975753E-01  8.962830E-03  8.586117E-03
    -7.0500  9.505124E-03  1.047687E-01  7.097706E-03  3.273271E-03
    -6.6000  1.451261E-02  7.089801E-02  8.786061E-03  2.144045E-03
    -6.1500  1.907946E-02  6.177784E-02  1.113150E-02  2.415173E-03
    -5.7000  2.169776E-02  5.787966E-02  1.372484E-02  2.614797E-03
    -5.2500  2.593973E-02  5.553988E-02  1.919094E-02  2.623216E-03
    -4.8000  3.228276E-02  6.320097E-02  2.620719E-02  2.886154E-03
    -4.3500  3.780623E-02  8.380245E-02  2.572143E-02  3.597334E-03
    -3.9000  3.857045E-02  1.055478E-01  2.385512E-02  4.003520E-03
    -3.4500  4.300038E-02  1.311674E-01  2.539803E-02  4.190092E-03
    -3.0000  3.349323E-02  1.388196E-01  3.109335E-02  3.495917E-03
    -2.5500  1.999202E-02  1.309565E-01  2.864056E-02  3.102482E-03
    -2.1000  1.483858E-02  1.198516E-01  2.207042E-02  3.316001E-03
    -1.6500  1.574846E-02  1.261586E-01  1.947878E-02  4.164933E-03
    -1.2000  1.334378E-02  1.467169E-01  1.771092E-02  6.352965E-03
    -0.7500  1.087127E-02  1.348388E-01  1.740369E-02  6.948212E-03
    -0.3000  1.137026E-02  8.476503E-02  2.013151E-02  3.837501E-03
     0.1500  1.269222E-02  7.907513E-02  2.588112E-02  3.353690E-03
     0.6000  1.388534E-02  8.769398E-02  2.706779E-02  3.388184E-03
     1.0500  1.402497E-02  9.561528E-02  2.319140E-02  3.514527E-03
     1.5000  1.321690E-02  8.971206E-02  2.132074E-02  3.476945E-03
     1.9500  1.312140E-02  7.921387E-02  2.185750E-02  3.379443E-03
     2.4000  1.295183E-02  7.182877E-02  2.414575E-02  3.342784E-03
     2.8500  1.255606E-02  7.783595E-02  2.806285E-02  3.528608E-03
     3.3000  1.272552E-02  8.853215E-02  3.273221E-02  3.906778E-03
     3.7500  1.298401E-02  8.489870E-02  3.680206E-02  4.385093E-03
     4.2000  1.246829E-02  7.912927E-02  3.989378E-02  4.954140E-03
     4.6500  1.174424E-02  7.025456E-02  4.040725E-02  5.277906E-03
     5.1000  1.092367E-02  6.083210E-02  3.920218E-02  5.312571E-03
     5.5500  9.972855E-03  5.386031E-02  3.838892E-02  5.235201E-03
     6.0000  9.241876E-03  5.017802E-02  3.867015E-02  5.218606E-03
     6.4500  9.086785E-03  4.930081E-02  4.051382E-02  5.311197E-03
     6.9000  9.386757E-03  5.052735E-02  4.396262E-02  5.538293E-03
     7.3500  9.705043E-03  5.262718E-02  4.871534E-02  5.956964E-03
     7.8000  9.833998E-03  5.391323E-02  5.402884E-02  6.572798E-03
     8.2500  9.741028E-03  5.408582E-02  5.836612E-02  7.333059E-03
     8.7000  9.442599E-03  5.367987E-02  6.103464E-02  8.195324E-03
     9.1500  9.231786E-03  5.342928E-02  6.305226E-02  9.052801E-03
     9.6000  9.248841E-03  5.314818E-02  6.436637E-02  9.726441E-03
    10.0500  9.402819E-03  5.284649E-02  6.459792E-02  1.013331E-02
    10.5000  9.492306E-03  5.311870E-02  6.438314E-02  1.026719E-02
    10.9500  9.482621E-03  5.499410E-02  6.515944E-02  1.029634E-02
    11.4000  9.523386E-03  5.812719E-02  6.760349E-02  1.037908E-02
    11.8500  9.558972E-03  5.754582E-02  6.998414E-02  1.054538E-02
    12.3000  9.535988E-03  5.300133E-02  7.199922E-02  1.091571E-02
    12.7500  9.595988E-03  4.913351E-02  7.535889E-02  1.165220E-02
    13.2000  9.761194E-03  4.706025E-02  8.069438E-02  1.277216E-02
    13.6500  1.004510E-02  4.596368E-02  8.727866E-02  1.395703E-02
    14.1000  1.027389E-02  4.466527E-02  9.230160E-02  1.468109E-02
    14.5500  1.031162E-02  4.266836E-02  9.329414E-02  1.486119E-02
    15.0000  1.027036E-02  4.042389E-02  9.106213E-02  1.485898E-02
