#  Fermi level (eV):  -8.334
#  Charge transfer :   0.184
#    Electron counts for each orbital momentum:
#       0      0.688
#       1      0.791
#       2      7.336
#       3      0.000
#  Number of atoms in cluster: 108
#  Lorentzian broadening with HWHH     0.1000 eV
# -----------------------------------------------------------------------
#      e        sDOS           pDOS          dDOS          fDOS    @#
   -30.0000  1.333218E-03  1.387580E-03  2.421941E-03  1.021181E-03
   -29.5500  2.475625E-03  2.018362E-03  3.659030E-03  1.284835E-03
   -29.1000  6.957811E-03  3.807608E-03  8.056992E-03  2.107889E-03
   -28.6500  1.001488E-01  2.043712E-02  9.490903E-02  1.257918E-02
   -28.2000  6.376401E-02  4.972953E-02  3.722614E-02  1.831019E-02
   -27.7500  4.808069E-02  7.276569E-02  1.050393E-01  2.630645E-02
   -27.3000  1.002664E-02  9.117772E-02  1.202415E-01  3.637134E-02
   -26.8500  2.441456E-03  8.758881E-03  1.146879E-02  3.782483E-03
   -26.4000  1.409500E-03  3.565441E-03  5.403697E-03  1.849017E-03
   -25.9500  1.106111E-03  2.410128E-03  4.389766E-03  1.497964E-03
   -25.5000  1.369127E-03  3.132251E-03  7.136295E-03  2.085127E-03
   -25.0500  5.489210E-03  1.586285E-02  3.071176E-02  1.209415E-02
   -24.6000  4.795937E-04  2.406040E-03  9.933629E-03  5.516512E-03
   -24.1500  1.348419E-03  2.126798E-03  5.013688E-03  1.845002E-03
   -23.7000  7.466127E-04  1.197723E-03  3.352241E-03  1.062212E-03
   -23.2500  6.128122E-04  9.599922E-04  3.051095E-03  8.727930E-04
   -22.8000  5.764838E-04  8.653054E-04  3.051515E-03  7.987056E-04
   -22.3500  5.796182E-04  8.248612E-04  3.180382E-03  7.630697E-04
   -21.9000  6.083732E-04  8.148547E-04  3.401827E-03  7.486833E-04
   -21.4500  6.593228E-04  8.255893E-04  3.705296E-03  7.459467E-04
   -21.0000  4.088887E-01 -2.309681E-01  2.249697E+00 -7.375704E-01
   -20.5500  8.439571E-04  9.014789E-04  4.606163E-03  7.651335E-04
   -20.1000  9.983985E-04  9.688194E-04  5.252488E-03  7.815965E-04
   -19.6500  1.230266E-03  1.072276E-03  6.171450E-03  8.279886E-04
   -19.2000 -5.145789E-01  2.975746E-02  1.336010E-02  8.253603E-04
   -18.7500  2.204190E-03  1.416570E-03  9.205525E-03  9.245074E-04
   -18.3000  3.256981E-03  1.592933E-03  1.083027E-02  6.788631E-04
   -17.8500  8.903508E-03  3.635089E-03  3.218789E-02  3.707694E-03
   -17.4000 -2.310508E-02 -4.666803E-02 -1.560086E-01 -1.267077E-01
   -16.9500  9.218335E-02  1.904274E-02  1.688058E-01  7.858099E-03
   -16.5000  3.825478E-02  3.239496E-02  1.123672E-01  1.005512E-02
   -16.0500  6.508760E-02  2.557860E-02  1.970489E-01  7.465944E-03
   -15.6000  7.089998E-02  9.417821E-03  4.001708E-02  6.686533E-04
   -15.1500  1.178524E-01  1.431183E-01  1.435036E+00  3.845752E-02
   -14.7000  5.689680E-02  7.242881E-02  7.686960E-01  2.714920E-02
   -14.2500  2.494381E-02  1.173259E-01  7.827170E-01  4.404602E-02
   -13.8000  3.354319E-01  1.776802E-02  1.685337E-01  8.632624E-04
   -13.3500  1.556993E-02  7.023877E-02  3.074216E-01  4.228562E-02
   -12.9000  2.204113E-02  6.234752E-02  2.883342E-01  3.532567E-02
   -12.4500  2.309435E-02  3.065383E-02  2.341862E-01  5.435034E-02
   -12.0000  2.068888E-02  2.285008E-02  2.032630E-01  1.616859E-02
   -11.5500  5.897858E-02  5.182052E-02  4.986436E-01  1.402468E-02
   -11.1000  6.220873E-02  8.854386E-02  1.132178E+00  2.332012E-02
   -10.6500  4.488870E-02  8.849100E-02  1.567811E+00  2.914764E-02
   -10.2000  7.798691E-02  8.897031E-02  8.527741E-01  3.624724E-03
    -9.7500  2.056271E-02  5.671560E-02  1.309619E+00  2.432039E-02
    -9.3000  1.827144E-02  3.997734E-02  1.527395E+00  2.190429E-02
    -8.8500  2.033066E-02  3.342844E-02  1.256115E+00  1.881382E-02
    -8.4000  5.706292E-02  1.061201E-01  3.655766E-01  5.983416E-03
    -7.9500  4.636070E-02  4.641384E-02  1.028396E+00  1.584992E-02
    -7.5000  8.086651E-02  5.999143E-02  6.527340E-01  1.481598E-02
    -7.0500  5.254250E-02  5.455944E-02  3.570549E-01  1.114471E-02
    -6.6000  1.773666E-02  3.437608E-02  1.814214E-01  7.786282E-03
    -6.1500  1.229692E-02  3.153403E-02  1.681122E-01  8.161593E-03
    -5.7000  1.579085E-02  3.822709E-02  3.045047E-01  1.357901E-02
    -5.2500  2.782768E-02  4.976787E-02  3.732865E-01  2.308190E-02
    -4.8000  5.210395E-02  1.170812E-01  1.416772E-01  1.716473E-02
    -4.3500  3.848172E-02  7.000613E-02  3.870392E-01  4.699791E-02
    -3.9000  2.812385E-02  5.798962E-02  3.063199E-01  5.509515E-02
    -3.4500  2.717125E-02  4.164870E-02  2.844862E-01  5.198172E-02
    -3.0000  4.780514E-02  1.209617E-01  1.372594E-01  2.887650E-02
    -2.5500  3.724275E-02  3.297771E-02  2.037446E-01  3.892686E-02
    -2.1000  4.094644E-02  3.964355E-02  1.583291E-01  3.951237E-02
    -1.6500  3.913519E-02  5.321673E-02  1.323635E-01  3.066273E-02
    -1.2000  5.072235E-02  5.034894E-02  9.551202E-02  2.245170E-02
    -0.7500  7.172276E-02  4.667883E-02  7.980980E-02  2.042059E-02
    -0.3000  1.136265E-01  4.621833E-02  8.071323E-02  2.411232E-02
     0.1500  1.584821E-01  4.814168E-02  8.767649E-02  3.177633E-02
     0.6000  3.985854E-02  1.257593E-01  1.085834E-01  5.634708E-02
     1.0500  1.171331E-01  6.524564E-02  9.037217E-02  4.174044E-02
     1.5000  1.020658E-01  8.607300E-02  9.445701E-02  4.504656E-02
     1.9500  8.490993E-02  1.129407E-01  9.120941E-02  4.849155E-02
     2.4000  3.664760E-02  1.255783E-01  1.029991E-01  7.467590E-02
     2.8500  6.392190E-02  1.895254E-01  7.229131E-02  6.051856E-02
     3.3000  5.302559E-02  2.071835E-01  6.808253E-02  6.697808E-02
     3.7500  4.315784E-02  1.934367E-01  6.505871E-02  7.731395E-02
     4.2000  3.514592E-02  1.874930E-01  6.743362E-02  9.656916E-02
     4.6500  3.016370E-02  1.819812E-01  7.275114E-02  1.108071E-01
     5.1000  2.840712E-02  1.610318E-01  7.368051E-02  1.130416E-01
     5.5500  2.939514E-02  1.442595E-01  7.420401E-02  1.145452E-01
     6.0000  3.139440E-02  1.217631E-01  1.002583E-01  1.208367E-01
     6.4500  3.740914E-02  1.361597E-01  7.323443E-02  1.118816E-01
     6.9000  3.738377E-02  1.399611E-01  7.303640E-02  1.107690E-01
     7.3500  3.528441E-02  1.390134E-01  7.413448E-02  1.112339E-01
     7.8000  2.924948E-02  1.186719E-01  1.014854E-01  1.483215E-01
     8.2500  3.227337E-02  1.295315E-01  7.978384E-02  1.194686E-01
     8.7000  2.942372E-02  1.302344E-01  8.394731E-02  1.266167E-01
     9.1500  2.635604E-02  1.326379E-01  8.759849E-02  1.333660E-01
     9.6000  2.402124E-02  1.350122E-01  9.024293E-02  1.378986E-01
    10.0500  2.277437E-02  1.364763E-01  9.195305E-02  1.411008E-01
    10.5000  2.230045E-02  1.356001E-01  9.351623E-02  1.470963E-01
    10.9500  2.224110E-02  1.312321E-01  9.504709E-02  1.574941E-01
    11.4000  2.573119E-02  1.111564E-01  1.068283E-01  2.094348E-01
    11.8500  2.311299E-02  1.171197E-01  9.895648E-02  1.870260E-01
    12.3000  2.391054E-02  1.110113E-01  1.039141E-01  2.040256E-01
    12.7500  2.432106E-02  1.075615E-01  1.092931E-01  2.168997E-01
    13.2000  2.418137E-02  1.063141E-01  1.116848E-01  2.238158E-01
    13.6500  2.384245E-02  1.061187E-01  1.096090E-01  2.292247E-01
    14.1000  2.349669E-02  1.062149E-01  1.043410E-01  2.344821E-01
    14.5500  2.312856E-02  1.057306E-01  9.849128E-02  2.376101E-01
    15.0000  2.276167E-02  1.044286E-01  9.403455E-02  2.399065E-01
