#  Fermi level (eV):  -7.203
#  Charge transfer :  -0.078
#    Electron counts for each orbital momentum:
#       0      1.757
#       1      4.194
#       2      0.126
#       3      0.000
#  Number of atoms in cluster: 145
#  Lorentzian broadening with HWHH     0.1000 eV
# -----------------------------------------------------------------------
#      e        sDOS           pDOS          dDOS          fDOS    @#
   -30.0000  1.190477E-02  6.619985E-04  9.988159E-05  5.279119E-05
   -29.5500  2.104176E-02  7.163579E-04  1.051956E-04  5.507553E-05
   -29.1000  6.367332E-02  8.184646E-04  1.186114E-04  5.980111E-05
   -28.6500  1.683921E-01  1.686995E-03  1.666247E-04  7.413287E-05
   -28.2000  7.043958E-01  1.619570E-03  3.624283E-04  1.446152E-04
   -27.7500  1.327786E+00  3.468177E-03  7.638532E-04  5.603183E-04
   -27.3000  1.119392E+00  2.562297E-03  6.866396E-04  5.194482E-04
   -26.8500  2.486864E-01  2.198907E-03  3.399512E-04  1.685825E-04
   -26.4000  4.579069E-02  1.177933E-03  1.449570E-04  7.488685E-05
   -25.9500  2.140349E-02  1.197111E-03  1.311529E-04  6.583141E-05
   -25.5000  1.334939E-02  1.335797E-03  1.401447E-04  6.860650E-05
   -25.0500  1.178810E-02  1.921666E-03  2.088617E-04  9.599690E-05
   -24.6000  7.499923E-03  1.669286E-03  1.484857E-04  6.983560E-05
   -24.1500  4.769614E-03  1.628291E-03  1.348119E-04  6.353897E-05
   -23.7000  3.654216E-03  1.769727E-03  1.364343E-04  6.364811E-05
   -23.2500  2.924694E-03  1.953771E-03  1.399824E-04  6.452235E-05
   -22.8000  2.405175E-03  2.177778E-03  1.444362E-04  6.573966E-05
   -22.3500  2.019613E-03  2.449635E-03  1.496199E-04  6.720378E-05
   -21.9000  1.725518E-03  2.783679E-03  1.556064E-04  6.895222E-05
   -21.4500  1.496670E-03  3.201014E-03  1.625129E-04  7.099547E-05
   -21.0000  1.315736E-03  3.732038E-03  1.704812E-04  7.338243E-05
   -20.5500  1.172057E-03  4.429743E-03  1.801009E-04  7.626508E-05
   -20.1000  1.057362E-03  5.369410E-03  1.914054E-04  7.986014E-05
   -19.6500  9.680938E-04  6.708064E-03  2.060195E-04  8.433588E-05
   -19.2000  8.944250E-04  8.657599E-03  2.225633E-04  8.852426E-05
   -18.7500  9.239607E-04  1.292956E-02  2.805876E-04  1.400858E-04
   -18.3000  1.032593E-03  1.727146E-02  2.562099E-04  1.390725E-04
   -17.8500  9.470622E-05 -5.371765E-02 -2.971617E-03 -2.044280E-03
   -17.4000  2.408840E-03  2.039660E-01  1.137026E-03  4.280566E-04
   -16.9500  8.799187E-03  4.765098E-01  2.967577E-03  1.226744E-03
   -16.5000  6.094939E-03  6.542682E-01  3.155792E-03  1.651765E-03
   -16.0500  7.353349E-03  7.659274E-01  4.898956E-03  2.169159E-03
   -15.6000  5.244317E-03  7.551714E-01  6.531076E-03  2.359584E-03
   -15.1500  5.121225E-03  8.318463E-01  8.014279E-03  2.264438E-03
   -14.7000  5.994571E-03  5.665056E-01  1.025553E-02  2.014312E-03
   -14.2500  6.358146E-03  2.807024E-01  8.161075E-03  1.901170E-03
   -13.8000  1.239896E-02  3.869717E-01  7.812927E-03  1.871264E-03
   -13.3500  1.186315E-02  7.916595E-01  7.445685E-03  2.123848E-03
   -12.9000  7.885157E-03  9.583480E-01  7.871148E-03  1.790714E-03
   -12.4500  4.808929E-03  7.205994E-01  5.274357E-03  9.842632E-04
   -12.0000  2.452545E-03  2.586066E-01  3.076029E-03  6.211428E-04
   -11.5500  1.737189E-03  8.867717E-02  3.767352E-03  6.932528E-04
   -11.1000  1.908092E-03  7.050715E-02  6.844070E-03  1.220746E-03
   -10.6500  2.899978E-03  9.618823E-02  1.529980E-02  2.725068E-03
   -10.2000  3.483562E-03  1.226874E-01  2.741161E-02  4.072856E-03
    -9.7500  2.504217E-03  1.470048E-01  3.487199E-02  6.302243E-03
    -9.3000  3.549699E-03  1.760264E-01  4.131183E-02  1.275395E-02
    -8.8500  3.031063E-03  1.567324E-01  3.751057E-02  1.010820E-02
    -8.4000  2.588555E-03  1.593782E-01  2.198634E-02  6.571826E-03
    -7.9500  3.938248E-03  2.134249E-01  1.315544E-02  6.313141E-03
    -7.5000  5.221555E-03  1.495079E-01  4.662466E-03  3.301689E-03
    -7.0500  9.190929E-03  5.610513E-02  3.635793E-03  1.454728E-03
    -6.6000  2.535749E-02  6.770500E-02  5.350602E-03  2.184120E-03
    -6.1500  7.535087E-02  6.056149E-02  1.632621E-02  7.652997E-03
    -5.7000  8.176412E-02  9.089718E-02  2.277437E-02  8.306493E-03
    -5.2500  3.603232E-02  1.457602E-01  2.153228E-02  5.333784E-03
    -4.8000  1.962874E-02  2.966010E-01  3.146094E-02  6.691154E-03
    -4.3500  1.580811E-02  2.314703E-01  2.173824E-02  4.916068E-03
    -3.9000  1.577213E-02  1.753789E-01  1.360351E-02  3.194509E-03
    -3.4500  2.051091E-02  1.387789E-01  1.207288E-02  2.339343E-03
    -3.0000  2.293515E-02  1.197594E-01  1.022660E-02  1.830285E-03
    -2.5500  2.181495E-02  1.082092E-01  1.047691E-02  1.469366E-03
    -2.1000  2.588792E-02  9.272640E-02  1.100030E-02  1.241291E-03
    -1.6500  2.735713E-02  9.653755E-02  1.361791E-02  1.247340E-03
    -1.2000  2.070745E-02  1.056604E-01  1.850173E-02  1.347700E-03
    -0.7500  1.792469E-02  1.046007E-01  1.931134E-02  1.456833E-03
    -0.3000  1.770241E-02  1.023199E-01  1.832008E-02  1.632744E-03
     0.1500  1.619815E-02  1.064644E-01  1.988160E-02  1.976946E-03
     0.6000  1.431337E-02  1.171706E-01  2.391051E-02  2.385276E-03
     1.0500  1.377250E-02  1.268808E-01  2.642224E-02  2.655356E-03
     1.5000  1.099874E-02  1.312769E-01  3.003041E-02  3.169769E-03
     1.9500  7.782565E-03  1.200263E-01  3.077177E-02  3.645653E-03
     2.4000  6.379239E-03  1.062290E-01  3.261497E-02  4.101577E-03
     2.8500  5.883184E-03  9.494276E-02  3.562649E-02  4.189874E-03
     3.3000  5.452061E-03  9.465054E-02  3.754368E-02  4.273319E-03
     3.7500  5.065356E-03  1.008632E-01  4.071931E-02  4.557770E-03
     4.2000  5.021321E-03  1.014402E-01  4.403987E-02  5.024433E-03
     4.6500  4.991605E-03  7.277276E-02  4.360329E-02  5.295251E-03
     5.1000  4.944718E-03  5.272114E-02  4.522997E-02  5.546199E-03
     5.5500  4.895849E-03  4.606658E-02  4.831782E-02  5.818207E-03
     6.0000  4.908550E-03  4.136201E-02  4.692665E-02  5.895691E-03
     6.4500  4.919043E-03  3.807988E-02  4.353238E-02  5.838272E-03
     6.9000  4.881370E-03  3.697780E-02  4.221421E-02  5.837878E-03
     7.3500  4.915635E-03  3.591553E-02  4.280540E-02  6.012222E-03
     7.8000  5.252029E-03  3.531746E-02  4.470459E-02  6.378624E-03
     8.2500  6.043552E-03  3.551179E-02  4.640384E-02  6.875141E-03
     8.7000  7.070277E-03  3.535551E-02  4.692198E-02  7.434329E-03
     9.1500  7.847088E-03  3.542873E-02  4.732692E-02  7.980283E-03
     9.6000  8.211592E-03  3.591961E-02  4.771477E-02  8.245993E-03
    10.0500  8.253733E-03  3.698012E-02  4.719054E-02  8.204475E-03
    10.5000  8.095132E-03  3.804202E-02  4.681693E-02  8.226841E-03
    10.9500  7.841958E-03  3.712606E-02  4.786514E-02  8.445391E-03
    11.4000  7.703472E-03  3.530471E-02  5.041734E-02  8.848776E-03
    11.8500  7.804149E-03  3.432286E-02  5.362986E-02  9.470888E-03
    12.3000  8.198357E-03  3.382031E-02  5.641796E-02  1.029915E-02
    12.7500  8.904205E-03  3.357214E-02  5.871594E-02  1.128416E-02
    13.2000  9.693975E-03  3.374772E-02  6.157518E-02  1.225545E-02
    13.6500  1.030538E-02  3.412998E-02  6.466978E-02  1.291613E-02
    14.1000  1.070177E-02  3.457470E-02  6.827791E-02  1.333319E-02
    14.5500  1.093887E-02  3.466510E-02  7.332564E-02  1.357497E-02
    15.0000  1.113774E-02  3.456653E-02  7.937335E-02  1.368009E-02
