#  Fermi level (eV):  -5.668
#  Charge transfer :  -0.156
#    Electron counts for each orbital momentum:
#       0      1.770
#       1      4.252
#       2      0.133
#       3      0.000
#  Number of atoms in cluster: 128
#  Lorentzian broadening with HWHH     0.1000 eV
# -----------------------------------------------------------------------
#      e        sDOS           pDOS          dDOS          fDOS    @#
   -30.0000  7.084662E-03  6.094751E-04  9.663833E-05  5.149348E-05
   -29.5500  1.042007E-02  6.493735E-04  1.002592E-04  5.308217E-05
   -29.1000  1.742721E-02  7.003102E-04  1.056616E-04  5.546231E-05
   -28.6500  4.129968E-02  7.838890E-04  1.173501E-04  5.996003E-05
   -28.2000  3.537352E-01  1.186067E-03  2.095449E-04  7.920354E-05
   -27.7500  3.409361E-01  1.943884E-03  3.038788E-04  1.290109E-04
   -27.3000  6.326031E-01  2.727931E-03  5.209328E-04  3.669065E-04
   -26.8500  1.211772E+00  3.536408E-03  1.087827E-03  6.932052E-04
   -26.4000  4.586634E-01  3.770375E-03  5.556569E-04  4.816939E-04
   -25.9500  7.679057E-02  1.307449E-03  1.736304E-04  1.088801E-04
   -25.5000  2.820599E-02  1.192155E-03  1.370457E-04  7.267919E-05
   -25.0500  1.546526E-02  1.245112E-03  1.309143E-04  6.582771E-05
   -24.6000  1.144904E-02  2.394837E-03  8.408056E-04  8.998972E-04
   -24.1500  7.845988E-03  1.601249E-03  1.525226E-04  7.014429E-05
   -23.7000  5.188704E-03  1.570905E-03  1.347386E-04  6.371510E-05
   -23.2500  3.943226E-03  1.703086E-03  1.356980E-04  6.363602E-05
   -22.8000  3.134919E-03  1.877783E-03  1.391850E-04  6.446290E-05
   -22.3500  2.561352E-03  2.088418E-03  1.435242E-04  6.561298E-05
   -21.9000  2.138009E-03  2.342607E-03  1.485736E-04  6.702086E-05
   -21.4500  1.816845E-03  2.653158E-03  1.543794E-04  6.869287E-05
   -21.0000  7.102900E-03  4.915065E-02  8.562047E-02 -8.125608E-02
   -20.5500  1.372290E-03  3.526626E-03  1.689038E-04  7.303724E-05
   -20.1000  1.216674E-03  4.159817E-03  1.781275E-04  7.587537E-05
   -19.6500  1.091021E-03  5.002233E-03  1.888835E-04  7.910981E-05
   -19.2000  9.951497E-03 -3.570152E-03  1.081442E-03 -2.624782E-05
   -18.7500  9.164123E-04  7.917706E-03  2.199694E-04  8.908200E-05
   -18.3000  8.518243E-04  1.055132E-02  2.389632E-04  9.278376E-05
   -17.8500  9.111901E-04  1.677086E-02  3.039797E-04  1.484101E-04
   -17.4000  9.190300E-04  1.863911E-02  2.899787E-04  9.572278E-05
   -16.9500  6.384448E-04 -7.378301E-03 -1.703058E-03 -1.292656E-03
   -16.5000  6.323362E-03  7.230606E-01  3.635679E-03  1.322519E-03
   -16.0500  7.685421E-03  5.572721E-01  3.766246E-03  1.574365E-03
   -15.6000  5.429990E-02  1.521024E-01  3.516822E-04  7.485327E-05
   -15.1500  7.329857E-03  6.258384E-01  7.152565E-03  2.422567E-03
   -14.7000  4.922864E-03  8.701699E-01  8.452281E-03  2.574984E-03
   -14.2500  6.725368E-03  5.783333E-01  9.171280E-03  2.087203E-03
   -13.8000  1.733920E-02  1.635431E+00  5.873841E-04  7.633841E-05
   -13.3500  1.198223E-02  4.008598E-01  8.151120E-03  1.700058E-03
   -12.9000  1.262101E-02  7.271657E-01  9.703265E-03  2.145935E-03
   -12.4500  8.671272E-03  8.144986E-01  7.598926E-03  1.741833E-03
   -12.0000  5.926059E-03  9.667070E-01  5.001988E-03  1.078675E-03
   -11.5500  2.808195E-03  5.158850E-01  3.307210E-03  6.676173E-04
   -11.1000  1.829897E-03  1.506664E-01  3.011309E-03  5.731694E-04
   -10.6500  1.672136E-03  7.851022E-02  4.284817E-03  7.844813E-04
   -10.2000  5.884242E-03  3.635580E-01  3.255334E-03  1.993627E-04
    -9.7500  3.020068E-03  9.227527E-02  2.088834E-02  3.410283E-03
    -9.3000  5.820144E-03  1.435968E-01  3.051994E-02  4.917634E-03
    -8.8500  4.467381E-03  1.624612E-01  3.148528E-02  7.426911E-03
    -8.4000  7.260277E-03  1.841537E-01  5.662488E-03  3.102303E-04
    -7.9500  6.909116E-03  1.439546E-01  2.897417E-02  8.940741E-03
    -7.5000  4.233519E-03  1.760935E-01  2.304481E-02  5.964107E-03
    -7.0500  4.141759E-03  2.140706E-01  1.888558E-02  6.715085E-03
    -6.6000  6.217609E-03  9.389598E-02  6.913569E-03  2.992448E-03
    -6.1500  1.241753E-02  5.780869E-02  4.509606E-03  1.636387E-03
    -5.7000  2.172037E-02  5.960899E-02  5.908674E-03  2.047350E-03
    -5.2500  4.016274E-02  6.111578E-02  1.130700E-02  4.000452E-03
    -4.8000  7.226150E-03  7.951494E-02  1.072526E-02  8.358634E-04
    -4.3500  5.965812E-02  1.192785E-01  2.366014E-02  7.648087E-03
    -3.9000  3.153130E-02  1.833174E-01  2.526269E-02  5.654167E-03
    -3.4500  1.954681E-02  2.919728E-01  3.252644E-02  5.852434E-03
    -3.0000  1.138120E-02  9.647905E-02  1.521622E-02  1.223852E-03
    -2.5500  1.888004E-02  1.623245E-01  1.750869E-02  2.991178E-03
    -2.1000  1.725046E-02  1.137558E-01  1.373549E-02  2.106596E-03
    -1.6500  1.780597E-02  9.885447E-02  1.163294E-02  1.618166E-03
    -1.2000  2.183968E-02  9.786503E-02  1.201309E-02  1.552039E-03
    -0.7500  2.424189E-02  9.022529E-02  1.306443E-02  1.557997E-03
    -0.3000  2.205647E-02  9.826198E-02  1.474058E-02  1.480973E-03
     0.1500  2.072841E-02  1.052658E-01  1.649499E-02  1.451906E-03
     0.6000  1.150298E-02  7.282469E-02  2.464315E-02  2.384606E-03
     1.0500  1.886248E-02  9.917786E-02  2.075208E-02  1.983683E-03
     1.5000  1.772229E-02  1.005985E-01  2.471459E-02  2.693173E-03
     1.9500  1.531904E-02  1.071909E-01  2.786263E-02  3.416984E-03
     2.4000  1.160496E-02  6.561940E-02  3.009342E-02  3.168858E-03
     2.8500  8.862622E-03  1.226265E-01  3.325232E-02  3.808261E-03
     3.3000  7.507014E-03  9.944305E-02  3.169768E-02  3.953190E-03
     3.7500  7.334744E-03  8.982373E-02  3.250844E-02  4.060981E-03
     4.2000  7.635563E-03  8.826925E-02  3.480063E-02  4.167649E-03
     4.6500  7.965475E-03  8.746535E-02  3.858549E-02  4.429875E-03
     5.1000  7.792468E-03  8.056195E-02  4.194166E-02  4.807394E-03
     5.5500  6.941505E-03  7.082142E-02  4.308409E-02  5.192669E-03
     6.0000  1.188554E-02  5.626482E-02  4.219206E-02  5.187605E-03
     6.4500  5.878432E-03  5.674878E-02  4.219963E-02  5.752087E-03
     6.9000  5.884250E-03  5.014655E-02  4.113009E-02  5.903441E-03
     7.3500  6.007942E-03  4.540499E-02  4.103246E-02  5.974726E-03
     7.8000  1.205876E-02  5.328527E-02  4.870629E-02  6.434041E-03
     8.2500  6.363592E-03  4.248002E-02  4.484936E-02  6.002083E-03
     8.7000  6.736424E-03  4.420713E-02  4.874700E-02  6.099101E-03
     9.1500  7.223305E-03  4.750728E-02  5.351981E-02  6.323103E-03
     9.6000  7.675919E-03  5.090321E-02  5.908321E-02  6.632013E-03
    10.0500  7.989839E-03  5.463345E-02  6.557306E-02  7.085607E-03
    10.5000  8.110669E-03  5.636516E-02  6.962304E-02  7.758026E-03
    10.9500  8.157698E-03  5.148956E-02  6.950933E-02  8.429338E-03
    11.4000  1.245505E-02  4.952386E-02  6.228052E-02  9.418484E-03
    11.8500  7.420381E-03  3.875084E-02  6.293599E-02  9.023243E-03
    12.3000  6.896132E-03  3.527189E-02  5.962625E-02  9.335993E-03
    12.7500  6.665876E-03  3.408148E-02  5.888692E-02  1.000921E-02
    13.2000  6.783933E-03  3.480838E-02  6.137055E-02  1.102930E-02
    13.6500  7.075485E-03  3.600795E-02  6.618709E-02  1.208301E-02
    14.1000  7.352054E-03  3.538505E-02  6.999890E-02  1.270450E-02
    14.5500  7.683635E-03  3.364838E-02  7.142351E-02  1.294561E-02
    15.0000  8.180504E-03  3.233423E-02  7.198855E-02  1.323858E-02
