#  Fermi level (eV):  -6.333
#  Charge transfer :   0.371
#    Electron counts for each orbital momentum:
#       0      0.639
#       1      0.840
#       2      7.150
#       3      0.000
#  Number of atoms in cluster: 131
#  Lorentzian broadening with HWHH     0.1000 eV
# -----------------------------------------------------------------------
#      e        sDOS           pDOS          dDOS          fDOS    @#
   -30.0000  7.078941E-04  9.125969E-04  1.515507E-03  8.111141E-04
   -29.5500  9.832536E-04  1.065535E-03  1.775362E-03  8.562780E-04
   -29.1000  1.511121E-03  1.315037E-03  2.171685E-03  9.334147E-04
   -28.6500  2.782974E-03  1.768161E-03  2.846939E-03  1.076477E-03
   -28.2000  7.980005E-03  2.791200E-03  4.265339E-03  1.408644E-03
   -27.7500  1.136461E-01  7.815452E-03  1.148520E-02  3.697092E-03
   -27.3000  6.298282E-02  2.051822E-02  2.615067E-02  6.039566E-03
   -26.8500  6.767797E-02  8.670343E-02  1.287854E-01  2.383540E-02
   -26.4000  3.593667E-02  1.707528E-01  2.712066E-01  6.311291E-02
   -25.9500  8.314436E-03  8.972475E-02  6.218721E-02  4.157352E-02
   -25.5000  2.448559E-03  1.091473E-02  1.183531E-02  5.027564E-03
   -25.0500  1.384690E-03  4.226146E-03  5.854238E-03  2.104908E-03
   -24.6000  4.428638E-04  6.758198E-03  9.525491E-03  3.367990E-03
   -24.1500  8.509798E-04  1.898419E-03  3.521657E-03  1.152009E-03
   -23.7000  6.451773E-04  1.339317E-03  2.960086E-03  9.335298E-04
   -23.2500  5.712918E-04  1.112372E-03  2.812957E-03  8.442786E-04
   -22.8000  5.330488E-04  9.810568E-04  2.799725E-03  7.926326E-04
   -22.3500  5.175150E-04  9.027096E-04  2.874586E-03  7.620257E-04
   -21.9000  5.193453E-04  8.583002E-04  3.019839E-03  7.443787E-04
   -21.4500  5.367853E-04  8.385383E-04  3.232897E-03  7.365238E-04
   -21.0000  3.994677E-01 -9.461143E-01  1.903597E+01 -2.426765E+01
   -20.5500  6.210588E-04  8.565451E-04  3.886729E-03  7.412322E-04
   -20.1000  6.953152E-04  8.944882E-04  4.372883E-03  7.569005E-04
   -19.6500  7.999646E-04  9.522095E-04  4.993419E-03  7.730864E-04
   -19.2000 -4.517859E-01  8.119356E-02  1.203184E-02  4.024003E-03
   -18.7500  1.176732E-03  1.165129E-03  7.005102E-03  8.410408E-04
   -18.3000  1.535292E-03  1.360370E-03  8.822022E-03  9.295254E-04
   -17.8500  2.133406E-03  1.631195E-03  1.132598E-02  9.451573E-04
   -17.4000  3.262325E-03  2.017205E-03  1.464590E-02  7.095542E-04
   -16.9500  6.952476E-03  3.714883E-03  3.803572E-02  3.361156E-03
   -16.5000 -5.399853E-03 -1.430874E-02 -1.002417E-01 -4.918901E-02
   -16.0500  3.442816E-01  3.136131E-02  7.564031E-01  5.013281E-03
   -15.6000  1.510966E-02  2.269093E-03  1.542698E-02  5.726811E-04
   -15.1500  1.400681E-01  6.338533E-02  6.952952E-01  1.650282E-02
   -14.7000  6.098527E-02  1.210805E-01  7.291442E-01  2.548309E-02
   -14.2500  9.948126E-02  8.546169E-02  8.373581E-01  3.974645E-02
   -13.8000  1.177316E-01  1.027096E-02  4.306384E-02  6.682207E-04
   -13.3500  7.457118E-02  7.472068E-02  3.648645E-01  3.964496E-02
   -12.9000  3.311931E-02  1.018172E-01  3.184417E-01  5.661592E-02
   -12.4500  2.217929E-02  1.741535E-01  3.678985E-01  9.584411E-02
   -12.0000  1.960802E-02  1.344891E-01  3.202510E-01  9.374910E-02
   -11.5500  1.237500E-02  8.846974E-02  2.463228E-01  8.349161E-02
   -11.1000  1.396519E-02  4.013772E-02  1.608539E-01  4.752710E-02
   -10.6500  8.084118E-03  2.191840E-02  1.453131E-01  2.615426E-02
   -10.2000  1.146273E-01  6.194980E-02  1.660894E+00  2.075108E-03
    -9.7500  1.939536E-02  2.012925E-02  4.922453E-01  1.676841E-02
    -9.3000  3.396256E-02  3.254617E-02  1.048485E+00  2.443812E-02
    -8.8500  4.490404E-02  3.115485E-02  1.539262E+00  2.442038E-02
    -8.4000  4.162587E-02  1.292027E-01  4.259247E-01  3.286157E-03
    -7.9500  1.704973E-02  3.523519E-02  1.684009E+00  2.574231E-02
    -7.5000  2.904185E-02  3.516508E-02  1.176018E+00  2.130217E-02
    -7.0500  1.519564E-02  2.082079E-02  6.420266E-01  1.509719E-02
    -6.6000  9.219992E-03  1.360972E-02  2.823045E-01  9.287027E-03
    -6.1500  5.729402E-03  1.243868E-02  1.555298E-01  7.017518E-03
    -5.7000  5.244395E-03  1.342884E-02  1.724831E-01  9.504595E-03
    -5.2500  6.697694E-03  1.617234E-02  3.037842E-01  1.257206E-02
    -4.8000  3.480109E-02  1.162682E-01  1.674444E-01  1.070381E-02
    -4.3500  1.500770E-02  3.282821E-02  8.689390E-01  2.391787E-02
    -3.9000  1.584660E-02  2.825429E-02  7.264614E-01  1.897022E-02
    -3.4500  1.632218E-02  2.815088E-02  7.559450E-01  1.769055E-02
    -3.0000  4.904667E-02  1.062288E-01  1.544969E-01  2.002578E-02
    -2.5500  1.020163E-02  2.421136E-02  4.556307E-01  1.677121E-02
    -2.1000  1.099573E-02  2.288020E-02  2.652275E-01  1.900872E-02
    -1.6500  1.621529E-02  2.446289E-02  1.525873E-01  1.760332E-02
    -1.2000  2.192316E-02  2.860432E-02  1.029257E-01  2.011446E-02
    -0.7500  2.565424E-02  3.259420E-02  8.408853E-02  2.283000E-02
    -0.3000  3.074262E-02  3.503194E-02  7.375152E-02  2.417673E-02
     0.1500  3.999344E-02  3.970197E-02  6.838680E-02  2.570204E-02
     0.6000  4.122362E-02  1.143934E-01  1.123853E-01  4.115740E-02
     1.0500  6.840108E-02  4.866455E-02  6.822278E-02  3.683347E-02
     1.5000  8.310268E-02  5.167459E-02  6.427322E-02  4.232135E-02
     1.9500  1.108095E-01  5.848066E-02  6.179605E-02  4.831404E-02
     2.4000  3.801789E-02  1.159012E-01  1.032107E-01  5.573524E-02
     2.8500  1.767700E-01  6.017209E-02  6.400425E-02  6.005510E-02
     3.3000  1.996352E-01  6.439886E-02  6.902970E-02  6.522830E-02
     3.7500  1.705560E-01  6.861669E-02  6.654098E-02  6.636961E-02
     4.2000  1.591884E-01  7.232894E-02  6.021216E-02  6.667154E-02
     4.6500  1.536325E-01  7.542865E-02  5.611151E-02  6.704997E-02
     5.1000  1.200162E-01  8.373139E-02  5.414810E-02  7.130331E-02
     5.5500  7.859151E-02  9.867728E-02  5.364531E-02  7.791119E-02
     6.0000  3.269535E-02  1.152139E-01  9.546870E-02  9.373179E-02
     6.4500  3.763488E-02  1.327750E-01  5.663203E-02  8.554167E-02
     6.9000  3.089863E-02  1.460366E-01  5.764302E-02  8.624593E-02
     7.3500  2.688050E-02  1.461651E-01  5.560205E-02  8.293895E-02
     7.8000  3.048460E-02  1.135074E-01  9.482055E-02  1.171621E-01
     8.2500  2.259820E-02  1.462586E-01  5.145363E-02  7.902252E-02
     8.7000  2.191488E-02  1.576273E-01  5.074006E-02  8.211689E-02
     9.1500  2.196241E-02  1.737815E-01  5.075016E-02  8.893656E-02
     9.6000  2.208083E-02  1.927472E-01  5.108487E-02  9.763988E-02
    10.0500  2.143592E-02  2.104006E-01  5.267904E-02  1.066187E-01
    10.5000  1.999699E-02  2.202821E-01  5.581762E-02  1.160185E-01
    10.9500  1.835422E-02  2.107967E-01  5.859646E-02  1.211619E-01
    11.4000  2.678824E-02  1.083470E-01  9.724283E-02  1.715736E-01
    11.8500  1.586300E-02  1.556851E-01  6.410941E-02  1.141878E-01
    12.3000  1.484843E-02  1.373050E-01  6.743495E-02  1.108588E-01
    12.7500  1.389324E-02  1.274530E-01  7.083673E-02  1.121302E-01
    13.2000  1.317415E-02  1.227380E-01  7.461266E-02  1.177654E-01
    13.6500  1.288076E-02  1.206085E-01  7.840569E-02  1.277881E-01
    14.1000  1.316675E-02  1.192036E-01  8.128792E-02  1.434181E-01
    14.5500  1.412420E-02  1.186214E-01  8.291378E-02  1.650351E-01
    15.0000  1.545368E-02  1.195680E-01  8.373963E-02  1.869541E-01
