#  Fermi level (eV):  -6.333
#  Charge transfer :  -0.189
#    Electron counts for each orbital momentum:
#       0      1.811
#       1      4.276
#       2      0.101
#       3      0.000
#  Number of atoms in cluster: 137
#  Lorentzian broadening with HWHH     0.1000 eV
# -----------------------------------------------------------------------
#      e        sDOS           pDOS          dDOS          fDOS    @#
   -30.0000  4.673060E-03  5.780136E-04  9.848793E-05  5.405311E-05
   -29.5500  6.267244E-03  6.129982E-04  1.010910E-04  5.517953E-05
   -29.1000  8.938758E-03  6.553554E-04  1.042578E-04  5.662244E-05
   -28.6500  1.418119E-02  7.132559E-04  1.085247E-04  5.867880E-05
   -28.2000  2.940766E-02  8.277478E-04  1.156081E-04  6.223708E-05
   -27.7500  2.423697E-01  1.945681E-03  1.386413E-04  7.544557E-05
   -27.3000  2.498353E-01  2.442202E-03  2.486982E-04  1.036330E-04
   -26.8500  4.410019E-01  3.503788E-03  4.536358E-04  3.501978E-04
   -26.4000  1.180971E+00  4.540032E-03  1.136503E-03  7.804857E-04
   -25.9500  8.710094E-01  1.883247E-03  4.545518E-04  2.467303E-04
   -25.5000  9.936739E-02  1.158437E-03  1.636199E-04  8.757754E-05
   -25.0500  3.556677E-02  1.151390E-03  1.396377E-04  7.226336E-05
   -24.6000  2.214947E-02  1.743858E-03  5.177307E-04  4.417519E-04
   -24.1500  1.187513E-02  1.311223E-03  1.389994E-04  6.930640E-05
   -23.7000  7.893503E-03  1.390208E-03  1.364132E-04  6.671312E-05
   -23.2500  5.742885E-03  1.509628E-03  1.391196E-04  6.704217E-05
   -22.8000  4.379755E-03  1.650945E-03  1.427423E-04  6.780641E-05
   -22.3500  3.458832E-03  1.817447E-03  1.470428E-04  6.883884E-05
   -21.9000  2.807435E-03  2.014756E-03  1.519929E-04  7.008578E-05
   -21.4500  2.330060E-03  2.250740E-03  1.576522E-04  7.154026E-05
   -21.0000  2.569295E-02 -2.023100E-01  9.062993E-01 -2.046089E+00
   -20.5500  1.693541E-03  2.887866E-03  1.716167E-04  7.513163E-05
   -20.1000  1.477305E-03  3.328588E-03  1.804411E-04  7.737678E-05
   -19.6500  1.305994E-03  3.893380E-03  1.909298E-04  7.998702E-05
   -19.2000  1.208669E-02 -4.035047E-03  1.943454E-03 -3.006309E-04
   -18.7500  1.063404E-03  5.667092E-03  2.204537E-04  8.708744E-05
   -18.3000  9.838784E-04  7.161619E-03  2.432277E-04  9.241882E-05
   -17.8500  9.253511E-04  9.474260E-03  2.747053E-04  9.906935E-05
   -17.4000  8.846314E-04  1.341659E-02  3.192581E-04  1.066458E-04
   -16.9500  1.047702E-03  2.458722E-02  5.123195E-04  1.694528E-04
   -16.5000 -3.134141E-05 -5.921725E-03 -4.458482E-04 -1.708448E-04
   -16.0500  5.484863E-03  6.240979E-01  5.652040E-03  5.713834E-04
   -15.6000  3.456734E-02  8.322857E-02  2.441503E-04  7.735114E-05
   -15.1500  7.614603E-03  6.910421E-01  8.311569E-03  1.963876E-03
   -14.7000  7.551982E-03  5.375050E-01  8.333020E-03  2.203446E-03
   -14.2500  1.057345E-02  6.947739E-01  8.411852E-03  2.282634E-03
   -13.8000  2.020077E-02  9.114959E-01  4.482166E-04  8.253028E-05
   -13.3500  1.143356E-02  6.111740E-01  7.047496E-03  1.799571E-03
   -12.9000  1.418542E-02  4.686899E-01  8.003032E-03  2.249070E-03
   -12.4500  1.055816E-02  6.118354E-01  7.708452E-03  1.841693E-03
   -12.0000  7.486554E-03  8.291942E-01  5.599673E-03  1.643229E-03
   -11.5500  5.342617E-03  1.008595E+00  4.223300E-03  1.048664E-03
   -11.1000  3.274330E-03  4.528948E-01  3.162723E-03  7.617534E-04
   -10.6500  3.063642E-03  1.929340E-01  3.410355E-03  8.033138E-04
   -10.2000  4.526246E-03  3.672596E-01  3.142099E-03  1.841965E-04
    -9.7500  6.018239E-03  1.555321E-01  1.355927E-02  2.850027E-03
    -9.3000  9.326552E-03  1.708431E-01  1.904043E-02  4.112116E-03
    -8.8500  1.119344E-02  2.037802E-01  2.293408E-02  6.898840E-03
    -8.4000  9.299430E-03  2.171213E-01  4.398673E-03  2.995740E-04
    -7.9500  7.593973E-03  2.918585E-01  2.212466E-02  1.070279E-02
    -7.5000  8.672721E-03  1.892403E-01  1.701021E-02  6.812444E-03
    -7.0500  9.853589E-03  1.264234E-01  1.068861E-02  3.997946E-03
    -6.6000  9.847775E-03  5.527613E-02  4.670515E-03  1.517626E-03
    -6.1500  1.550192E-02  4.224972E-02  4.569102E-03  1.367434E-03
    -5.7000  2.881455E-02  4.748945E-02  7.833674E-03  1.915310E-03
    -5.2500  3.379642E-02  6.637612E-02  1.390323E-02  2.759298E-03
    -4.8000  8.318898E-03  8.851697E-02  1.294632E-02  9.079528E-04
    -4.3500  4.384910E-02  2.602159E-01  4.261498E-02  7.362913E-03
    -3.9000  2.131921E-02  1.732003E-01  2.689871E-02  3.757870E-03
    -3.4500  2.727374E-02  2.192115E-01  3.203512E-02  3.738273E-03
    -3.0000  1.182498E-02  9.961780E-02  1.618122E-02  1.326106E-03
    -2.5500  1.024907E-02  1.401039E-01  1.360271E-02  2.404166E-03
    -2.1000  8.484093E-03  1.722591E-01  1.350574E-02  2.408164E-03
    -1.6500  9.739628E-03  1.283541E-01  1.293682E-02  1.738718E-03
    -1.2000  1.129986E-02  8.661740E-02  1.385442E-02  1.665111E-03
    -0.7500  1.322218E-02  6.784158E-02  1.508102E-02  1.912565E-03
    -0.3000  1.831560E-02  6.435772E-02  1.544554E-02  2.228592E-03
     0.1500  2.370821E-02  6.853875E-02  1.668486E-02  2.515002E-03
     0.6000  1.216684E-02  7.458302E-02  2.683765E-02  2.674731E-03
     1.0500  2.568555E-02  9.288130E-02  2.081260E-02  2.845655E-03
     1.5000  2.156842E-02  1.084780E-01  2.322685E-02  2.815790E-03
     1.9500  1.734846E-02  1.228022E-01  2.736200E-02  2.949926E-03
     2.4000  1.237294E-02  6.722578E-02  3.302052E-02  3.598074E-03
     2.8500  1.207732E-02  1.311307E-01  3.747544E-02  3.507780E-03
     3.3000  1.050537E-02  1.302343E-01  4.272878E-02  3.929960E-03
     3.7500  9.428679E-03  1.098040E-01  4.335205E-02  4.325529E-03
     4.2000  7.896286E-03  9.004164E-02  4.497264E-02  4.645601E-03
     4.6500  6.758704E-03  8.179260E-02  4.843480E-02  5.069261E-03
     5.1000  6.110525E-03  7.509970E-02  4.889027E-02  5.392655E-03
     5.5500  5.531512E-03  6.555807E-02  4.900454E-02  5.630791E-03
     6.0000  1.284956E-02  5.801747E-02  4.673397E-02  5.994772E-03
     6.4500  5.203150E-03  4.831074E-02  5.030479E-02  6.047604E-03
     6.9000  5.487776E-03  4.367970E-02  5.042623E-02  6.415691E-03
     7.3500  5.667332E-03  4.046767E-02  4.888823E-02  6.854206E-03
     7.8000  1.311382E-02  5.523468E-02  5.409068E-02  7.481896E-03
     8.2500  5.806342E-03  3.720678E-02  4.826419E-02  7.445955E-03
     8.7000  5.937282E-03  3.780029E-02  5.024665E-02  7.783562E-03
     9.1500  6.200668E-03  3.946073E-02  5.198722E-02  8.198148E-03
     9.6000  6.658397E-03  4.168642E-02  5.401975E-02  8.676005E-03
    10.0500  7.422581E-03  4.404683E-02  5.756275E-02  9.259081E-03
    10.5000  8.573016E-03  4.646398E-02  6.151207E-02  9.798882E-03
    10.9500  9.966666E-03  4.888655E-02  6.125319E-02  9.950260E-03
    11.4000  1.367565E-02  5.198257E-02  6.931420E-02  1.105106E-02
    11.8500  1.169334E-02  4.683102E-02  5.666780E-02  1.007877E-02
    12.3000  1.189812E-02  4.141158E-02  5.804146E-02  1.037039E-02
    12.7500  1.208346E-02  3.915230E-02  6.148063E-02  1.072880E-02
    13.2000  1.202941E-02  3.907324E-02  6.620544E-02  1.131787E-02
    13.6500  1.144159E-02  3.906598E-02  7.257730E-02  1.220457E-02
    14.1000  1.056687E-02  3.819448E-02  8.015698E-02  1.334162E-02
    14.5500  1.000755E-02  3.703900E-02  8.710306E-02  1.469124E-02
    15.0000  1.012640E-02  3.678344E-02  9.258235E-02  1.607520E-02
