#  Fermi level (eV):  -7.366
#  Charge transfer :  -0.217
#    Electron counts for each orbital momentum:
#       0      1.783
#       1      4.324
#       2      0.109
#       3      0.000
#  Number of atoms in cluster: 109
#  Lorentzian broadening with HWHH     0.1000 eV
# -----------------------------------------------------------------------
#      e        sDOS           pDOS          dDOS          fDOS    @#
   -30.0000  9.064950E-03  6.436597E-04  1.071537E-04  5.343642E-05
   -29.5500  1.411915E-02  6.907908E-04  1.153512E-04  5.501087E-05
   -29.1000  2.587859E-02  7.546702E-04  1.318098E-04  5.744693E-05
   -28.6500  7.202258E-02  8.703652E-04  1.885521E-04  6.243687E-05
   -28.2000  7.055855E-01  1.502885E-03  8.994039E-04  8.527776E-05
   -27.7500  1.067386E+00  2.163883E-03  1.741101E-03  2.425207E-04
   -27.3000  1.052634E+00  4.523198E-03  1.824209E-03  3.087135E-04
   -26.8500  1.033329E+00  3.681830E-03  6.194922E-04  2.867775E-04
   -26.4000  8.953749E-02  1.348727E-03  1.954855E-04  8.429263E-05
   -25.9500  3.264874E-02  1.336108E-03  1.640339E-04  7.112455E-05
   -25.5000  1.889904E-02  1.620140E-03  1.764814E-04  7.221916E-05
   -25.0500  1.787469E-02  3.247980E-03  2.790264E-04  9.872581E-05
   -24.6000  1.085894E-01  1.842340E-02  1.944698E-03  3.565609E-04
   -24.1500  3.241380E-02  3.225090E-03  6.255802E-04  1.067539E-04
   -23.7000  8.235892E-03  1.997441E-03  2.108431E-04  7.410110E-05
   -23.2500  4.822798E-03  1.937873E-03  1.682865E-04  7.074647E-05
   -22.8000  3.455125E-03  2.050752E-03  1.583844E-04  7.081151E-05
   -22.3500  2.686024E-03  2.240776E-03  1.569111E-04  7.203286E-05
   -21.9000  2.182973E-03  2.492105E-03  1.588808E-04  7.384234E-05
   -21.4500  1.826699E-03  2.812654E-03  1.628689E-04  7.628143E-05
   -21.0000  1.561464E-03  3.217216E-03  1.683203E-04  7.926408E-05
   -20.5500  1.357912E-03  3.736008E-03  1.751600E-04  8.299157E-05
   -20.1000  1.198736E-03  4.418883E-03  1.836409E-04  8.789844E-05
   -19.6500  1.074054E-03  5.356631E-03  1.943237E-04  9.487820E-05
   -19.2000  9.723875E-04  6.634785E-03  2.064822E-04  1.027038E-04
   -18.7500  8.860554E-04  8.378005E-03  2.188778E-04  1.098429E-04
   -18.3000  8.924431E-04  1.356837E-02  2.780385E-04  1.839416E-04
   -17.8500  9.406357E-04  1.744947E-02  2.074730E-04  2.454395E-04
   -17.4000  9.556247E-05 -5.766498E-02 -3.170586E-03 -3.289943E-03
   -16.9500  1.012441E-03  2.100175E-01  5.312702E-04  1.277644E-03
   -16.5000  3.049341E-03  7.450454E-01  2.598392E-03  5.191809E-03
   -16.0500  3.200264E-03  4.992437E-01  2.403372E-03  3.719960E-03
   -15.6000  4.977064E-03  2.692710E-01  3.913544E-03  1.306030E-03
   -15.1500  2.642676E-02  5.140253E-01  1.376518E-02  2.533442E-03
   -14.7000  9.047848E-03  5.646440E-01  7.949249E-03  2.856345E-03
   -14.2500  5.251870E-03  5.751366E-01  6.136987E-03  2.029874E-03
   -13.8000  5.416156E-03  9.273524E-01  5.083096E-03  1.609587E-03
   -13.3500  6.605114E-03  9.199838E-01  4.278751E-03  1.580155E-03
   -12.9000  6.590691E-03  5.532472E-01  6.253702E-03  2.077907E-03
   -12.4500  3.683528E-03  6.734970E-01  4.703093E-03  2.090755E-03
   -12.0000  4.646855E-03  3.902979E-01  4.753395E-03  1.498294E-03
   -11.5500  3.965871E-03  2.058053E-01  6.443236E-03  1.161436E-03
   -11.1000  1.649707E-03  4.192086E-01  1.435669E-02  1.409656E-03
   -10.6500  1.524994E-03  1.013586E-01  3.148214E-02  1.797055E-03
   -10.2000  2.081004E-03  1.946860E-01  1.682175E-02  2.544042E-03
    -9.7500  3.254845E-03  1.285964E-01  1.154496E-02  2.041966E-03
    -9.3000  1.046039E-02  1.403444E-01  1.773242E-02  2.284095E-03
    -8.8500  9.474285E-03  1.434827E-01  2.902278E-02  3.664744E-03
    -8.4000  4.426913E-03  1.303635E-01  1.595845E-02  3.438552E-03
    -7.9500  4.537636E-03  3.743789E-01  1.272265E-02  1.213925E-02
    -7.5000  5.791613E-03  3.600932E-01  2.238532E-02  1.270542E-02
    -7.0500  6.401800E-03  2.041905E-01  8.193113E-03  1.101110E-02
    -6.6000  9.035490E-03  1.068038E-01  7.451586E-03  3.001012E-03
    -6.1500  1.631302E-02  7.240826E-02  9.148412E-03  1.699273E-03
    -5.7000  2.927585E-02  5.799019E-02  1.222884E-02  1.638752E-03
    -5.2500  2.381690E-02  5.186136E-02  1.508353E-02  1.632302E-03
    -4.8000  2.087757E-02  4.575115E-02  2.314066E-02  1.783879E-03
    -4.3500  2.498942E-02  4.942782E-02  2.833465E-02  2.098021E-03
    -3.9000  2.778463E-02  6.912675E-02  2.090420E-02  3.279949E-03
    -3.4500  3.866521E-02  1.158938E-01  2.167914E-02  4.648003E-03
    -3.0000  4.602351E-02  1.351285E-01  2.666852E-02  3.785910E-03
    -2.5500  3.477702E-02  1.000387E-01  2.501609E-02  2.891387E-03
    -2.1000  2.397598E-02  8.919315E-02  2.215206E-02  2.709258E-03
    -1.6500  1.917814E-02  1.065674E-01  2.629333E-02  3.452514E-03
    -1.2000  1.612352E-02  1.535999E-01  3.005986E-02  4.661236E-03
    -0.7500  1.137919E-02  1.524631E-01  1.835652E-02  5.998173E-03
    -0.3000  1.156690E-02  1.716063E-01  1.723286E-02  8.655907E-03
     0.1500  1.549711E-02  9.115359E-02  2.056690E-02  4.286994E-03
     0.6000  1.622481E-02  6.958793E-02  2.313413E-02  3.020186E-03
     1.0500  1.161537E-02  6.754593E-02  2.143864E-02  2.881744E-03
     1.5000  9.753613E-03  7.323794E-02  2.231665E-02  3.118573E-03
     1.9500  9.951623E-03  8.717352E-02  2.390186E-02  3.582984E-03
     2.4000  1.201496E-02  9.931175E-02  2.457329E-02  3.861803E-03
     2.8500  1.228125E-02  8.862537E-02  2.488309E-02  3.201077E-03
     3.3000  1.147490E-02  7.995864E-02  2.512866E-02  2.809180E-03
     3.7500  1.281564E-02  8.169544E-02  2.871119E-02  2.865179E-03
     4.2000  1.505205E-02  7.485809E-02  3.422614E-02  3.217681E-03
     4.6500  1.514680E-02  6.332898E-02  3.684112E-02  3.679677E-03
     5.1000  1.281369E-02  5.711765E-02  3.615368E-02  4.063397E-03
     5.5500  1.048194E-02  5.330230E-02  3.539323E-02  4.303041E-03
     6.0000  8.977833E-03  4.906162E-02  3.572661E-02  4.453093E-03
     6.4500  8.316386E-03  4.605885E-02  3.727095E-02  4.683513E-03
     6.9000  8.774250E-03  4.624199E-02  4.135541E-02  5.167827E-03
     7.3500  1.106228E-02  4.993913E-02  4.915861E-02  5.898012E-03
     7.8000  1.341783E-02  5.569564E-02  5.785007E-02  6.584665E-03
     8.2500  1.244716E-02  6.148607E-02  6.355199E-02  7.004913E-03
     8.7000  1.052532E-02  6.898118E-02  6.635614E-02  7.407503E-03
     9.1500  9.249788E-03  7.924093E-02  7.180923E-02  8.373519E-03
     9.6000  8.694684E-03  8.031139E-02  8.033672E-02  9.673479E-03
    10.0500  9.613244E-03  6.582255E-02  8.592613E-02  9.429345E-03
    10.5000  1.258261E-02  5.790158E-02  9.421913E-02  9.133486E-03
    10.9500  1.082684E-02  5.485341E-02  8.461217E-02  9.083004E-03
    11.4000  8.190381E-03  5.705891E-02  7.235257E-02  9.277630E-03
    11.8500  7.175187E-03  7.374643E-02  6.957032E-02  1.004723E-02
    12.3000  6.841145E-03  6.466270E-02  7.469564E-02  1.077588E-02
    12.7500  6.771244E-03  5.106637E-02  7.726784E-02  1.163978E-02
    13.2000  7.104973E-03  4.449067E-02  7.687073E-02  1.283000E-02
    13.6500  7.975222E-03  3.990727E-02  7.781071E-02  1.421820E-02
    14.1000  9.371921E-03  3.702889E-02  7.888103E-02  1.586523E-02
    14.5500  1.090662E-02  3.516196E-02  7.980581E-02  1.745026E-02
    15.0000  1.183755E-02  3.320058E-02  8.020556E-02  1.815234E-02
