#  Fermi level (eV):  -6.612
#  Charge transfer :   0.447
#    Electron counts for each orbital momentum:
#       0      0.607
#       1      0.796
#       2      7.149
#       3      0.000
#  Number of atoms in cluster: 139
#  Lorentzian broadening with HWHH     0.1000 eV
# -----------------------------------------------------------------------
#      e        sDOS           pDOS          dDOS          fDOS    @#
   -30.0000  1.927162E-03  1.488326E-03  2.232330E-03  9.789896E-04
   -29.5500  4.579985E-03  2.185045E-03  3.101014E-03  1.186517E-03
   -29.1000  4.257973E-02  4.651780E-03  6.757738E-03  2.045039E-03
   -28.6500  2.817491E-02  2.166569E-02  1.330442E-02  5.396729E-03
   -28.2000  8.635455E-02  3.716663E-02  4.381839E-02  1.022496E-02
   -27.7500  5.432767E-02  9.252795E-02  1.527946E-01  3.209090E-02
   -27.3000  2.580612E-02  1.610329E-01  1.921804E-01  6.057570E-02
   -26.8500  4.351771E-03  3.454224E-02  2.776639E-02  1.915809E-02
   -26.4000  1.803958E-03  6.190585E-03  7.877085E-03  3.099298E-03
   -25.9500  1.158621E-03  3.043407E-03  4.592058E-03  1.654011E-03
   -25.5000  1.000676E-03  2.219059E-03  3.694981E-03  1.277954E-03
   -25.0500  1.396662E-03  2.673017E-03  4.366311E-03  1.446847E-03
   -24.6000  4.054608E-03  5.312017E-03  1.664804E-02  1.302486E-02
   -24.1500  6.244008E-04  1.179018E-03  2.803076E-03  8.625824E-04
   -23.7000  5.330214E-04  9.629556E-04  2.667516E-03  7.842749E-04
   -23.2500  5.106478E-04  8.787921E-04  2.721960E-03  7.523202E-04
   -22.8000  5.133206E-04  8.386698E-04  2.856574E-03  7.355302E-04
   -22.3500  5.343208E-04  8.259261E-04  3.063727E-03  7.322013E-04
   -21.9000  5.716436E-04  8.311186E-04  3.327487E-03  7.294260E-04
   -21.4500  6.295670E-04  8.573179E-04  3.686976E-03  7.414714E-04
   -21.0000 -1.967771E-01  2.795062E-02 -7.697888E-02 -5.504059E-02
   -20.5500  8.314065E-04  9.715925E-04  4.754814E-03  7.846128E-04
   -20.1000  1.007938E-03  1.077232E-03  5.613696E-03  8.361656E-04
   -19.6500  1.264839E-03  1.204027E-03  6.581732E-03  8.147080E-04
   -19.2000  1.501443E-02  9.684287E-03  5.532614E-03  5.637826E-04
   -18.7500  2.816781E-03  2.361096E-03  1.767452E-02  3.002388E-03
   -18.3000 -1.712990E-02 -4.425935E-02 -1.582309E-01 -1.422556E-01
   -17.8500  9.039547E-03  3.241428E-03  2.948686E-02  1.133819E-03
   -17.4000  1.039320E-01  1.093134E-02  2.037583E-01  3.331945E-03
   -16.9500  8.949311E-02  8.446794E-02  3.925314E-01  1.683338E-02
   -16.5000  8.051892E-02  7.879114E-02  4.871007E-01  1.777709E-02
   -16.0500  1.006977E-01  8.692714E-02  5.877658E-01  2.284158E-02
   -15.6000  2.171069E-02  1.013085E-02  1.292553E-01  6.963193E-04
   -15.1500  8.637141E-02  8.119125E-02  5.549379E-01  3.415376E-02
   -14.7000  8.113211E-02  7.623983E-02  6.882067E-01  3.295850E-02
   -14.2500  4.365012E-02  9.035443E-02  4.296560E-01  3.367904E-02
   -13.8000  2.152419E-01  2.101167E-02  1.390059E-01  1.099707E-03
   -13.3500  4.707483E-02  1.313874E-01  3.363467E-01  7.342977E-02
   -12.9000  2.366127E-02  1.818202E-01  2.590557E-01  1.203312E-01
   -12.4500  9.870169E-03  9.336990E-02  1.551116E-01  8.410532E-02
   -12.0000  4.936400E-03  2.308583E-02  9.505428E-02  2.606652E-02
   -11.5500  4.151585E-03  1.184671E-02  1.319324E-01  1.300621E-02
   -11.1000  6.565702E-03  1.025868E-02  1.980074E-01  9.072252E-03
   -10.6500  1.498959E-02  1.480553E-02  5.085047E-01  1.272696E-02
   -10.2000  1.182159E-01  7.081843E-02  1.144357E+00  3.892710E-03
    -9.7500  2.665676E-02  2.258106E-02  1.158879E+00  2.688633E-02
    -9.3000  3.239837E-02  2.956458E-02  1.521036E+00  3.012328E-02
    -8.8500  2.347064E-02  2.660517E-02  1.683610E+00  2.606818E-02
    -8.4000  2.989909E-02  1.286699E-01  3.528132E-01  4.796084E-03
    -7.9500  1.558320E-02  1.526444E-02  9.198046E-01  1.620177E-02
    -7.5000  1.128182E-02  1.074745E-02  5.888441E-01  8.920401E-03
    -7.0500  1.448851E-02  1.734319E-02  3.485248E-01  8.927766E-03
    -6.6000  1.054143E-02  1.639419E-02  2.937866E-01  8.734274E-03
    -6.1500  1.014411E-02  1.429641E-02  3.506492E-01  1.054418E-02
    -5.7000  1.768299E-02  2.003003E-02  6.131723E-01  1.557426E-02
    -5.2500  1.480638E-02  3.409939E-02  1.003312E+00  2.287734E-02
    -4.8000  3.395864E-02  1.013487E-01  1.879456E-01  1.635011E-02
    -4.3500  1.216305E-02  3.596706E-02  7.292125E-01  1.702493E-02
    -3.9000  1.469822E-02  2.930933E-02  5.159208E-01  1.299828E-02
    -3.4500  1.873743E-02  2.142738E-02  2.907815E-01  1.204247E-02
    -3.0000  4.752153E-02  1.046118E-01  1.596348E-01  2.782115E-02
    -2.5500  3.055714E-02  3.485998E-02  1.568187E-01  2.060447E-02
    -2.1000  3.460043E-02  5.139750E-02  1.261915E-01  3.090225E-02
    -1.6500  4.247169E-02  5.533640E-02  1.140942E-01  3.345430E-02
    -1.2000  5.226277E-02  4.973093E-02  8.748150E-02  3.057355E-02
    -0.7500  5.629615E-02  4.803361E-02  6.682102E-02  3.167520E-02
    -0.3000  5.818375E-02  4.993711E-02  6.032073E-02  3.541667E-02
     0.1500  7.665816E-02  5.638379E-02  6.216529E-02  4.141407E-02
     0.6000  4.064468E-02  1.112482E-01  1.171190E-01  5.198235E-02
     1.0500  1.592596E-01  5.785581E-02  9.123507E-02  5.451056E-02
     1.5000  1.984751E-01  6.558934E-02  9.423984E-02  6.037806E-02
     1.9500  2.057348E-01  7.220782E-02  7.244984E-02  5.745105E-02
     2.4000  3.770704E-02  1.125432E-01  1.075867E-01  6.775432E-02
     2.8500  7.897047E-02  7.654091E-02  5.140549E-02  5.377890E-02
     3.3000  6.274129E-02  8.057609E-02  5.020998E-02  5.754237E-02
     3.7500  6.841525E-02  8.811441E-02  5.294598E-02  6.533780E-02
     4.2000  7.951160E-02  9.347188E-02  5.914099E-02  7.520258E-02
     4.6500  8.855776E-02  9.503307E-02  6.750440E-02  8.447769E-02
     5.1000  8.713838E-02  9.818736E-02  7.553927E-02  9.439681E-02
     5.5500  7.292784E-02  1.064058E-01  7.609074E-02  9.872596E-02
     6.0000  3.269552E-02  1.120684E-01  9.926287E-02  1.068798E-01
     6.4500  4.608749E-02  1.187697E-01  6.476398E-02  9.122115E-02
     6.9000  3.590772E-02  1.274215E-01  6.199498E-02  9.244265E-02
     7.3500  2.872102E-02  1.409329E-01  6.118524E-02  9.755767E-02
     7.8000  3.057031E-02  1.106478E-01  9.835586E-02  1.300120E-01
     8.2500  2.035075E-02  1.792125E-01  6.532335E-02  9.746913E-02
     8.7000  1.792009E-02  2.000099E-01  6.613450E-02  9.675603E-02
     9.1500  1.590986E-02  2.080977E-01  6.310095E-02  9.654185E-02
     9.6000  1.424748E-02  2.052124E-01  6.058444E-02  9.716978E-02
    10.0500  1.317393E-02  1.954559E-01  5.991307E-02  9.784859E-02
    10.5000  1.284799E-02  1.846781E-01  6.096202E-02  9.884182E-02
    10.9500  1.306041E-02  1.768554E-01  6.216132E-02  1.015808E-01
    11.4000  2.696863E-02  1.061832E-01  1.002386E-01  1.817622E-01
    11.8500  1.353008E-02  1.526403E-01  6.469558E-02  1.133835E-01
    12.3000  1.350145E-02  1.380615E-01  6.967051E-02  1.238500E-01
    12.7500  1.326483E-02  1.302806E-01  7.572616E-02  1.359457E-01
    13.2000  1.298110E-02  1.255789E-01  8.016440E-02  1.459788E-01
    13.6500  1.302249E-02  1.198782E-01  8.253692E-02  1.543953E-01
    14.1000  1.368985E-02  1.132825E-01  8.519631E-02  1.658619E-01
    14.5500  1.486896E-02  1.072900E-01  8.995637E-02  1.818630E-01
    15.0000  1.592108E-02  1.029146E-01  9.518888E-02  1.993112E-01
