#  Fermi level (eV):  -6.612
#  Charge transfer :   0.065
#    Electron counts for each orbital momentum:
#       0      0.351
#       1      6.429
#       2      1.156
#       3      0.000
#  Number of atoms in cluster: 139
#  Lorentzian broadening with HWHH     0.1000 eV
# -----------------------------------------------------------------------
#      e        sDOS           pDOS          dDOS          fDOS    @#
   -30.0000  9.105145E-04  1.131510E-02  1.120565E-03  5.774827E-04
   -29.5500  1.345266E-03  1.701747E-02  1.461784E-03  7.252033E-04
   -29.1000  4.973542E-03  4.228232E-02  2.447799E-03  1.182841E-03
   -28.6500  7.242201E-03  1.296726E-01  1.001526E-02  3.261546E-03
   -28.2000  2.565864E-02  3.961431E-01  1.969581E-02  1.072357E-02
   -27.7500  2.978228E-02  4.915600E-01  5.405410E-02  2.347308E-02
   -27.3000  1.320371E-02  1.772699E-01  7.507283E-02  4.617029E-02
   -26.8500  2.412195E-03  6.334993E-02  9.049824E-03  5.246224E-03
   -26.4000  1.088992E-03  7.104392E-02  3.132809E-03  1.711175E-03
   -25.9500  7.916392E-04  1.253243E-01  2.216106E-03  1.252373E-03
   -25.5000  7.559732E-04  3.619951E-01  2.645805E-03  1.895944E-03
   -25.0500  2.172808E-03  2.718066E+00  1.407447E-02  8.051447E-03
   -24.6000  4.012242E-03  5.569499E+00  1.811696E-02  6.402063E-03
   -24.1500  7.854387E-04  1.792790E+00  3.561444E-03  6.306408E-03
   -23.7000  5.191624E-04  2.190925E-01  1.726204E-03  1.067947E-03
   -23.2500  4.661950E-04  9.119371E-02  1.456031E-03  7.622119E-04
   -22.8000  4.485788E-04  5.110779E-02  1.393428E-03  6.842133E-04
   -22.3500  4.454729E-04  3.301890E-02  1.400404E-03  6.617557E-04
   -21.9000  4.513967E-04  2.324791E-02  1.441056E-03  6.596252E-04
   -21.4500  4.662650E-04  1.737042E-02  1.510241E-03  6.730830E-04
   -21.0000  4.898361E-04  1.356195E-02  1.602389E-03  6.949109E-04
   -20.5500  5.246079E-04  1.097069E-02  1.723381E-03  7.277094E-04
   -20.1000  5.756991E-04  9.153321E-03  1.887314E-03  7.793234E-04
   -19.6500  6.477358E-04  7.838368E-03  2.077926E-03  8.232097E-04
   -19.2000  7.509905E-04  6.867641E-03  2.275103E-03  8.228612E-04
   -18.7500  1.004626E-03  6.657806E-03  3.349949E-03  1.546065E-03
   -18.3000 -3.503505E-03 -1.846336E-02 -3.965643E-02 -3.980182E-02
   -17.8500  1.878257E-03  6.167850E-03  4.631467E-03  1.621127E-03
   -17.4000  6.152591E-03  1.180535E-02  1.477910E-02  5.690979E-03
   -16.9500  4.199737E-02  4.005951E-02  6.740678E-02  1.539773E-02
   -16.5000  3.394713E-02  3.673840E-02  4.800127E-02  1.800450E-02
   -16.0500  5.680308E-02  6.861462E-02  7.863734E-02  2.102081E-02
   -15.6000  5.702137E-02  8.755427E-02  1.291792E-01  3.260674E-02
   -15.1500  4.286960E-02  8.865474E-02  1.198753E-01  3.814388E-02
   -14.7000  3.604384E-02  9.614593E-02  1.204203E-01  3.189329E-02
   -14.2500  4.431580E-02  1.219956E-01  1.930356E-01  3.857251E-02
   -13.8000  3.075231E-02  9.962323E-02  1.566953E-01  6.032301E-02
   -13.3500  2.263845E-02  7.607865E-02  1.579101E-01  7.724992E-02
   -12.9000  3.172901E-02  6.680359E-02  1.376202E-01  7.928339E-02
   -12.4500  1.765709E-02  4.278599E-02  6.580507E-02  4.398821E-02
   -12.0000  8.495605E-03  2.208737E-02  3.243252E-02  1.702077E-02
   -11.5500  7.274635E-03  1.509668E-02  2.397474E-02  9.930802E-03
   -11.1000  8.966917E-03  1.479615E-02  3.011560E-02  1.050810E-02
   -10.6500  1.477683E-02  2.000354E-02  4.864642E-02  1.631928E-02
   -10.2000  1.266708E-02  2.282691E-02  6.538789E-02  2.115985E-02
    -9.7500  1.599187E-02  2.695564E-02  6.664752E-02  2.366640E-02
    -9.3000  1.777692E-02  2.545839E-02  6.615448E-02  2.247248E-02
    -8.8500  2.127721E-02  2.536868E-02  6.528356E-02  2.279949E-02
    -8.4000  1.672116E-02  2.457123E-02  6.234389E-02  1.331213E-02
    -7.9500  3.094925E-02  2.664776E-02  7.675913E-02  1.256644E-02
    -7.5000  5.018421E-02  4.827688E-02  1.225327E-01  1.714059E-02
    -7.0500  5.484941E-02  6.401097E-02  1.910639E-01  2.237550E-02
    -6.6000  2.243286E-02  5.754751E-02  2.712520E-01  2.496964E-02
    -6.1500  3.484446E-02  5.003415E-02  4.461584E-01  2.555240E-02
    -5.7000  5.506774E-02  6.728525E-02  7.192731E-01  3.712035E-02
    -5.2500  4.738238E-02  6.475024E-02  6.362323E-01  4.691801E-02
    -4.8000  4.290664E-02  6.894004E-02  6.275440E-01  5.660699E-02
    -4.3500  3.581336E-02  5.850042E-02  4.943281E-01  4.392487E-02
    -3.9000  3.460906E-02  4.571776E-02  4.180940E-01  3.116684E-02
    -3.4500  3.817290E-02  5.711077E-02  7.006755E-01  3.700344E-02
    -3.0000  4.996745E-02  6.570735E-02  1.143328E+00  4.612094E-02
    -2.5500  7.718525E-02  6.247936E-02  1.469745E+00  5.405394E-02
    -2.1000  7.231667E-02  6.791002E-02  1.557476E+00  6.152001E-02
    -1.6500  6.974809E-02  7.725286E-02  1.642373E+00  5.737993E-02
    -1.2000  7.420679E-02  9.392116E-02  1.199018E+00  6.114378E-02
    -0.7500  1.083782E-01  1.047886E-01  1.345508E+00  6.585103E-02
    -0.3000  1.289901E-01  1.118897E-01  8.926267E-01  6.204126E-02
     0.1500  1.453452E-01  1.126078E-01  5.274665E-01  6.213514E-02
     0.6000  1.236596E-01  1.162659E-01  3.576413E-01  7.433663E-02
     1.0500  1.148403E-01  1.373624E-01  3.320514E-01  1.076434E-01
     1.5000  1.036250E-01  1.507909E-01  3.126468E-01  1.316487E-01
     1.9500  9.599533E-02  1.338790E-01  3.006707E-01  1.424372E-01
     2.4000  8.984922E-02  1.229971E-01  3.322129E-01  1.750155E-01
     2.8500  8.579655E-02  1.344263E-01  3.326341E-01  1.952464E-01
     3.3000  7.889032E-02  1.558510E-01  3.159221E-01  1.919889E-01
     3.7500  7.184236E-02  1.946223E-01  3.296554E-01  1.966060E-01
     4.2000  6.379159E-02  2.272081E-01  3.354087E-01  2.117264E-01
     4.6500  5.498211E-02  2.283681E-01  2.938224E-01  2.236641E-01
     5.1000  4.775893E-02  2.363097E-01  2.569169E-01  2.313883E-01
     5.5500  4.459850E-02  2.511038E-01  2.317967E-01  2.407495E-01
     6.0000  4.656662E-02  2.770373E-01  2.104841E-01  2.509264E-01
     6.4500  5.048221E-02  2.927911E-01  1.910119E-01  2.634640E-01
     6.9000  4.930880E-02  2.768225E-01  1.784481E-01  2.843027E-01
     7.3500  4.436450E-02  2.488808E-01  1.735834E-01  3.058609E-01
     7.8000  4.047450E-02  2.317744E-01  1.743437E-01  3.248744E-01
     8.2500  3.690081E-02  2.191818E-01  1.756972E-01  3.400404E-01
     8.7000  3.216052E-02  1.981340E-01  1.738030E-01  3.508745E-01
     9.1500  2.792956E-02  1.712128E-01  1.715288E-01  3.646444E-01
     9.6000  2.503288E-02  1.496668E-01  1.704234E-01  3.828295E-01
    10.0500  2.267793E-02  1.344090E-01  1.694073E-01  4.000718E-01
    10.5000  2.080006E-02  1.244690E-01  1.719647E-01  4.180852E-01
    10.9500  2.010305E-02  1.193986E-01  1.840025E-01  4.416704E-01
    11.4000  2.086885E-02  1.180131E-01  2.068897E-01  4.706146E-01
    11.8500  2.246663E-02  1.179665E-01  2.297341E-01  5.006889E-01
    12.3000  2.328026E-02  1.159614E-01  2.352835E-01  5.228174E-01
    12.7500  2.407301E-02  1.132250E-01  2.293135E-01  5.352338E-01
    13.2000  2.597755E-02  1.120943E-01  2.234328E-01  5.384947E-01
    13.6500  2.811162E-02  1.126961E-01  2.215697E-01  5.370721E-01
    14.1000  2.896768E-02  1.143533E-01  2.185377E-01  5.342050E-01
    14.5500  2.861006E-02  1.159502E-01  2.138949E-01  5.361900E-01
    15.0000  2.837356E-02  1.159978E-01  2.113711E-01  5.479141E-01
