#  Fermi level (eV):  -8.049
#  Charge transfer :  -0.076
#    Electron counts for each orbital momentum:
#       0      1.780
#       1      4.177
#       2      0.119
#       3      0.000
#  Number of atoms in cluster:  99
#  Lorentzian broadening with HWHH     0.1000 eV
# -----------------------------------------------------------------------
#      e        sDOS           pDOS          dDOS          fDOS    @#
   -30.0000  1.483316E-02  6.905691E-04  1.156959E-04  5.319695E-05
   -29.5500  2.660977E-02  7.495204E-04  1.352161E-04  5.551184E-05
   -29.1000  6.428526E-02  8.434078E-04  1.956796E-04  6.036215E-05
   -28.6500  4.183900E-01  1.132044E-03  7.692536E-04  8.382701E-05
   -28.2000  7.173215E-01  4.650634E-03  1.481157E-03  2.460242E-04
   -27.7500  9.675689E-01  3.644466E-03  8.705256E-04  2.997539E-04
   -27.3000  4.182372E-01  5.248828E-03  4.493198E-04  4.315057E-04
   -26.8500  1.063571E-01  1.482850E-03  1.842939E-04  9.245614E-05
   -26.4000  3.093839E-02  1.299262E-03  1.497196E-04  6.866609E-05
   -25.9500  1.686092E-02  1.430001E-03  1.516256E-04  6.623771E-05
   -25.5000  1.256774E-02  1.873450E-03  1.813165E-04  7.093510E-05
   -25.0500  2.101045E-02  5.887691E-03  4.135926E-04  1.249947E-04
   -24.6000  9.035656E-02  8.795408E-03  1.660208E-03  2.136966E-04
   -24.1500  1.300657E-02  3.121635E-03  3.834146E-04  9.188886E-05
   -23.7000  5.141600E-03  2.113201E-03  1.821451E-04  7.118661E-05
   -23.2500  3.443386E-03  2.127038E-03  1.585149E-04  6.967139E-05
   -22.8000  2.627126E-03  2.291703E-03  1.535906E-04  7.048783E-05
   -22.3500  2.122769E-03  2.536227E-03  1.541607E-04  7.221827E-05
   -21.9000  1.773405E-03  2.855100E-03  1.572561E-04  7.459886E-05
   -21.4500  1.516367E-03  3.262080E-03  1.620264E-04  7.761131E-05
   -21.0000  1.319438E-03  3.783528E-03  1.680753E-04  8.135067E-05
   -20.5500  1.165926E-03  4.469340E-03  1.756346E-04  8.624599E-05
   -20.1000  1.044160E-03  5.396395E-03  1.847699E-04  9.277747E-05
   -19.6500  9.482254E-04  6.715137E-03  1.960958E-04  1.022822E-04
   -19.2000  8.753845E-04  8.676582E-03  2.108954E-04  1.157438E-04
   -18.7500  8.181009E-04  1.170961E-02  2.289985E-04  1.337523E-04
   -18.3000  7.631222E-04  1.828194E-02  2.427617E-04  2.015054E-04
   -17.8500  1.007359E-03  4.555161E-02  3.436831E-04  7.413788E-04
   -17.4000  6.494623E-03  4.708866E-02  5.373482E-03  1.230878E-04
   -16.9500  1.497930E-03  1.381947E+00  1.331759E-03  1.107604E-02
   -16.5000  6.794552E-03  2.790326E-01  2.524360E-03  1.808529E-03
   -16.0500  1.516259E-02  4.214983E-01  7.268220E-03  2.997240E-03
   -15.6000  5.437531E-03  5.673621E-01  4.079505E-03  2.902935E-03
   -15.1500  4.846804E-03  1.060363E+00  3.803900E-03  4.216009E-03
   -14.7000  4.745939E-03  1.176576E+00  5.821086E-03  4.849706E-03
   -14.2500  5.515322E-03  7.058407E-01  8.015691E-03  2.084368E-03
   -13.8000  7.139018E-03  9.078535E-01  7.324832E-03  1.631145E-03
   -13.3500  4.957485E-03  6.596923E-01  5.459598E-03  1.012820E-03
   -12.9000  3.993770E-03  5.196430E-01  4.414747E-03  8.023362E-04
   -12.4500  3.395232E-03  2.913988E-01  3.764512E-03  7.159948E-04
   -12.0000  2.615295E-03  1.154035E-01  4.566352E-03  8.363349E-04
   -11.5500  3.416484E-03  9.755579E-02  9.735916E-03  1.710051E-03
   -11.1000  2.696955E-03  1.015244E-01  1.666279E-02  2.106127E-03
   -10.6500  3.042881E-03  8.577932E-02  4.280511E-02  3.167957E-03
   -10.2000  4.818261E-03  1.255302E-01  3.520783E-02  3.455100E-03
    -9.7500  5.074843E-03  1.782634E-01  2.414406E-02  3.897240E-03
    -9.3000  7.373870E-03  2.286922E-01  1.691452E-02  5.537340E-03
    -8.8500  6.105392E-03  2.095466E-01  1.770317E-02  5.189080E-03
    -8.4000  5.193253E-03  2.018927E-01  2.479692E-02  5.987252E-03
    -7.9500  7.178337E-03  4.283586E-01  1.524162E-02  1.477609E-02
    -7.5000  8.883202E-03  3.151054E-01  9.449126E-03  1.203906E-02
    -7.0500  7.670139E-03  1.073330E-01  7.225642E-03  4.058450E-03
    -6.6000  9.985897E-03  6.563834E-02  6.490595E-03  2.230371E-03
    -6.1500  2.456246E-02  8.052881E-02  9.315434E-03  2.162575E-03
    -5.7000  4.278060E-02  1.069850E-01  1.549893E-02  2.712102E-03
    -5.2500  3.392751E-02  9.043239E-02  1.952601E-02  2.364278E-03
    -4.8000  2.012249E-02  6.921896E-02  1.778688E-02  2.186587E-03
    -4.3500  1.724151E-02  7.366852E-02  1.772100E-02  2.513131E-03
    -3.9000  2.065686E-02  9.206719E-02  1.943598E-02  3.251952E-03
    -3.4500  2.961113E-02  9.999473E-02  2.079872E-02  3.525301E-03
    -3.0000  3.875265E-02  1.016051E-01  1.936041E-02  3.535932E-03
    -2.5500  3.548654E-02  1.096269E-01  1.914141E-02  3.855758E-03
    -2.1000  2.118593E-02  1.174388E-01  1.782952E-02  3.830085E-03
    -1.6500  1.403190E-02  1.094779E-01  1.726993E-02  3.686085E-03
    -1.2000  1.206936E-02  8.599119E-02  1.855335E-02  3.106388E-03
    -0.7500  1.163592E-02  7.704130E-02  2.010656E-02  2.776367E-03
    -0.3000  1.241141E-02  7.585066E-02  2.127838E-02  2.723768E-03
     0.1500  1.448751E-02  7.996046E-02  2.232116E-02  2.894387E-03
     0.6000  1.684114E-02  8.287744E-02  2.317839E-02  3.076081E-03
     1.0500  1.789647E-02  8.191194E-02  2.370073E-02  3.151992E-03
     1.5000  1.708009E-02  8.288523E-02  2.459470E-02  3.338883E-03
     1.9500  1.491306E-02  9.020970E-02  2.656716E-02  3.768903E-03
     2.4000  1.248093E-02  1.032535E-01  2.847235E-02  4.315784E-03
     2.8500  1.076483E-02  1.081935E-01  3.033768E-02  4.563268E-03
     3.3000  9.839508E-03  9.622783E-02  3.242428E-02  4.416467E-03
     3.7500  9.663809E-03  8.339311E-02  3.359808E-02  4.307055E-03
     4.2000  1.003376E-02  7.924305E-02  3.443085E-02  4.455093E-03
     4.6500  1.038596E-02  7.921318E-02  3.643183E-02  4.650635E-03
     5.1000  1.024611E-02  7.731245E-02  3.985790E-02  4.777038E-03
     5.5500  9.548400E-03  7.215021E-02  4.408795E-02  4.964036E-03
     6.0000  8.619415E-03  6.368379E-02  4.770049E-02  5.182080E-03
     6.4500  7.881909E-03  5.488740E-02  4.960265E-02  5.376783E-03
     6.9000  7.389774E-03  4.851113E-02  4.973087E-02  5.565683E-03
     7.3500  7.124040E-03  4.458691E-02  4.847825E-02  5.814488E-03
     7.8000  7.082011E-03  4.216502E-02  4.649570E-02  6.154649E-03
     8.2500  7.172180E-03  4.087235E-02  4.483227E-02  6.581629E-03
     8.7000  7.250339E-03  4.029265E-02  4.422685E-02  7.068919E-03
     9.1500  7.301036E-03  3.966265E-02  4.449287E-02  7.562189E-03
     9.6000  7.426599E-03  3.874138E-02  4.522178E-02  8.059997E-03
    10.0500  7.621280E-03  3.785197E-02  4.629502E-02  8.631952E-03
    10.5000  7.754587E-03  3.710451E-02  4.787951E-02  9.305136E-03
    10.9500  7.776040E-03  3.644173E-02  5.019070E-02  1.001567E-02
    11.4000  7.744384E-03  3.601550E-02  5.311749E-02  1.065235E-02
    11.8500  7.711356E-03  3.589405E-02  5.607352E-02  1.111866E-02
    12.3000  7.714921E-03  3.593943E-02  5.860885E-02  1.139024E-02
    12.7500  7.788082E-03  3.594721E-02  6.097707E-02  1.153657E-02
    13.2000  7.963128E-03  3.580519E-02  6.351499E-02  1.166581E-02
    13.6500  8.282649E-03  3.553030E-02  6.619899E-02  1.182388E-02
    14.1000  8.790233E-03  3.525181E-02  6.892831E-02  1.197195E-02
    14.5500  9.509122E-03  3.517125E-02  7.179840E-02  1.209313E-02
    15.0000  1.041971E-02  3.547235E-02  7.505861E-02  1.224411E-02
