#  Fermi level (eV):  -5.761
#  Charge transfer :  -0.295
#    Electron counts for each orbital momentum:
#       0      1.814
#       1      4.394
#       2      0.087
#       3      0.000
#  Number of atoms in cluster: 142
#  Lorentzian broadening with HWHH     0.1000 eV
# -----------------------------------------------------------------------
#      e        sDOS           pDOS          dDOS          fDOS    @#
   -30.0000  7.249090E-03  6.287196E-04  1.031201E-04  5.532221E-05
   -29.5500  1.067286E-02  6.728164E-04  1.063941E-04  5.650531E-05
   -29.1000  1.781132E-02  7.324470E-04  1.108425E-04  5.813125E-05
   -28.6500  4.154128E-02  8.532783E-04  1.187077E-04  6.095853E-05
   -28.2000  2.259389E-01  1.605911E-03  1.522086E-04  7.107325E-05
   -27.7500  5.103902E-01  2.275590E-03  2.396065E-04  1.069710E-04
   -27.3000  1.339147E+00  3.523155E-03  5.025771E-04  3.118952E-04
   -26.8500  1.197047E+00  3.882762E-03  6.990701E-04  3.476005E-04
   -26.4000  3.382987E-01  1.642366E-03  2.949776E-04  1.377352E-04
   -25.9500  5.344385E-02  1.325914E-03  1.618021E-04  7.598110E-05
   -25.5000  2.551612E-02  1.528221E-03  1.697909E-04  7.425118E-05
   -25.0500  2.184215E-02  2.406128E-03  2.426871E-04  8.697041E-05
   -24.6000  9.555841E-02  1.220247E-02  1.114151E-03  2.356780E-04
   -24.1500  1.863506E-01  2.833454E-02  2.280888E-03  6.281437E-04
   -23.7000  1.699835E-02  5.030042E-03  7.602922E-04  2.872302E-04
   -23.2500  6.908487E-03  2.237518E-03  2.096700E-04  8.690362E-05
   -22.8000  4.420532E-03  2.063772E-03  1.736660E-04  7.576132E-05
   -22.3500  3.261209E-03  2.139838E-03  1.658778E-04  7.345440E-05
   -21.9000  2.571537E-03  2.313053E-03  1.655061E-04  7.328309E-05
   -21.4500  2.109226E-03  2.556111E-03  1.683734E-04  7.398791E-05
   -21.0000  1.778136E-03  2.870733E-03  1.733048E-04  7.522334E-05
   -20.5500  1.530507E-03  3.271347E-03  1.798940E-04  7.685432E-05
   -20.1000  1.340915E-03  3.785674E-03  1.882448E-04  7.888651E-05
   -19.6500  1.194076E-03  4.460049E-03  1.987254E-04  8.137522E-05
   -19.2000  1.081382E-03  5.375383E-03  2.123622E-04  8.455058E-05
   -18.7500  9.958778E-04  6.662864E-03  2.299718E-04  8.852535E-05
   -18.3000  9.346039E-04  8.592367E-03  2.534701E-04  9.364468E-05
   -17.8500  9.500996E-04  1.230378E-02  3.075845E-04  1.055023E-04
   -17.4000  1.239991E-03  2.172613E-02  5.003956E-04  1.885485E-04
   -16.9500  3.787291E-04 -8.666935E-03 -1.535582E-03 -1.061814E-03
   -16.5000  6.624940E-03  3.038917E-01  3.306178E-03  7.373410E-04
   -16.0500  9.904057E-03  2.816641E-01  4.808230E-03  8.769016E-04
   -15.6000  7.202594E-03  5.179403E-01  5.053354E-03  1.217426E-03
   -15.1500  1.143244E-02  6.758347E-01  7.772938E-03  1.598571E-03
   -14.7000  7.555492E-03  6.440107E-01  7.024485E-03  1.823769E-03
   -14.2500  1.066082E-02  8.959456E-01  7.054172E-03  1.685538E-03
   -13.8000  1.199870E-02  9.214403E-01  8.217076E-03  1.795958E-03
   -13.3500  1.162328E-02  6.545278E-01  6.578431E-03  1.726591E-03
   -12.9000  7.563678E-03  7.666321E-01  7.427556E-03  1.483426E-03
   -12.4500  5.963723E-03  9.888163E-01  5.559945E-03  1.241995E-03
   -12.0000  2.666364E-03  1.021115E+00  3.171867E-03  8.573289E-04
   -11.5500  1.561200E-03  3.191365E-01  2.050814E-03  5.349361E-04
   -11.1000  1.343971E-03  1.076825E-01  2.172129E-03  5.516337E-04
   -10.6500  1.728734E-03  7.786532E-02  4.267636E-03  9.851898E-04
   -10.2000  2.696997E-03  1.064866E-01  1.015102E-02  2.247161E-03
    -9.7500  3.890729E-03  1.312071E-01  1.904088E-02  3.927450E-03
    -9.3000  4.060629E-03  1.500358E-01  2.087102E-02  4.505178E-03
    -8.8500  4.582650E-03  2.044316E-01  1.992093E-02  6.203444E-03
    -8.4000  3.796615E-03  2.454542E-01  1.546092E-02  9.879120E-03
    -7.9500  3.891500E-03  1.594171E-01  7.811793E-03  4.266550E-03
    -7.5000  6.066719E-03  1.127733E-01  8.851520E-03  4.650136E-03
    -7.0500  4.233892E-03  1.162623E-01  4.357631E-03  5.239324E-03
    -6.6000  4.417494E-03  4.047060E-02  3.650066E-03  1.471258E-03
    -6.1500  7.932252E-03  3.340537E-02  5.684814E-03  1.314252E-03
    -5.7000  2.582925E-02  5.259894E-02  1.546586E-02  3.026942E-03
    -5.2500  6.059809E-02  1.451582E-01  4.542196E-02  7.037732E-03
    -4.8000  9.023541E-02  2.390714E-01  4.432131E-02  7.632595E-03
    -4.3500  5.166419E-02  1.917485E-01  3.538315E-02  5.172193E-03
    -3.9000  3.305804E-02  1.561531E-01  2.356054E-02  3.673386E-03
    -3.4500  2.413399E-02  1.167769E-01  1.689383E-02  2.641132E-03
    -3.0000  1.893791E-02  9.731766E-02  1.324663E-02  2.089086E-03
    -2.5500  1.657249E-02  9.531102E-02  1.288585E-02  2.185939E-03
    -2.1000  2.173481E-02  9.413184E-02  1.354417E-02  2.387812E-03
    -1.6500  3.023253E-02  1.294125E-01  1.599208E-02  2.307899E-03
    -1.2000  2.933620E-02  1.391792E-01  2.063275E-02  2.266386E-03
    -0.7500  1.897843E-02  1.197082E-01  2.242486E-02  2.238500E-03
    -0.3000  1.327916E-02  1.478223E-01  2.530499E-02  2.704717E-03
     0.1500  1.071227E-02  1.226988E-01  2.276080E-02  2.291932E-03
     0.6000  1.013442E-02  1.066055E-01  2.212643E-02  2.129539E-03
     1.0500  1.052528E-02  1.209961E-01  2.712915E-02  2.538914E-03
     1.5000  9.048868E-03  1.357813E-01  3.709765E-02  3.294560E-03
     1.9500  6.765991E-03  1.254142E-01  4.274644E-02  3.449339E-03
     2.4000  5.313017E-03  1.164169E-01  4.164720E-02  3.352288E-03
     2.8500  4.730051E-03  9.943903E-02  3.881932E-02  3.100885E-03
     3.3000  4.818143E-03  8.744729E-02  3.861151E-02  2.985307E-03
     3.7500  5.294305E-03  8.262326E-02  4.242266E-02  3.248364E-03
     4.2000  5.521554E-03  7.827725E-02  4.902314E-02  3.994397E-03
     4.6500  5.009857E-03  6.446572E-02  5.383607E-02  4.756260E-03
     5.1000  4.674043E-03  5.526457E-02  5.775159E-02  5.484255E-03
     5.5500  4.529128E-03  5.144183E-02  6.025212E-02  6.304702E-03
     6.0000  4.393828E-03  4.689439E-02  5.797381E-02  6.792182E-03
     6.4500  4.622987E-03  4.321751E-02  5.483591E-02  7.038256E-03
     6.9000  5.144729E-03  4.053437E-02  5.373936E-02  6.871292E-03
     7.3500  5.791557E-03  3.955277E-02  5.462066E-02  6.819408E-03
     7.8000  6.357615E-03  4.058548E-02  5.722647E-02  7.189115E-03
     8.2500  6.757775E-03  4.270148E-02  6.129862E-02  7.792930E-03
     8.7000  7.135213E-03  4.470731E-02  6.597470E-02  8.348893E-03
     9.1500  7.613306E-03  4.488551E-02  6.900010E-02  8.785087E-03
     9.6000  8.223383E-03  4.422156E-02  6.932439E-02  9.270375E-03
    10.0500  8.710127E-03  4.374036E-02  6.919558E-02  9.899022E-03
    10.5000  8.802128E-03  4.258057E-02  7.033084E-02  1.056882E-02
    10.9500  8.726247E-03  4.065257E-02  7.180132E-02  1.121948E-02
    11.4000  8.813849E-03  3.834721E-02  7.269395E-02  1.202046E-02
    11.8500  9.186772E-03  3.572427E-02  7.283437E-02  1.306853E-02
    12.3000  9.843735E-03  3.381885E-02  7.193266E-02  1.409147E-02
    12.7500  1.076768E-02  3.360515E-02  7.063609E-02  1.487888E-02
    13.2000  1.178720E-02  3.466211E-02  7.083746E-02  1.596569E-02
    13.6500  1.218776E-02  3.654052E-02  7.255986E-02  1.760947E-02
    14.1000  1.177649E-02  3.816948E-02  7.447819E-02  1.924904E-02
    14.5500  1.140623E-02  3.737286E-02  7.634125E-02  1.999579E-02
    15.0000  1.184615E-02  3.553332E-02  7.758598E-02  1.959577E-02
