#  Fermi level (eV):  -6.397
#  Charge transfer :  -0.241
#    Electron counts for each orbital momentum:
#       0      1.826
#       1      4.327
#       2      0.089
#       3      0.000
#  Number of atoms in cluster: 144
#  Lorentzian broadening with HWHH     0.1000 eV
# -----------------------------------------------------------------------
#      e        sDOS           pDOS          dDOS          fDOS    @#
   -30.0000  1.062664E-02  6.737906E-04  1.063780E-04  5.644681E-05
   -29.5500  1.833539E-02  7.452641E-04  1.119459E-04  5.834411E-05
   -29.1000  6.840420E-02  1.152595E-03  1.303179E-04  6.407700E-05
   -28.6500  1.281114E-01  1.839885E-03  2.244717E-04  7.884656E-05
   -28.2000  3.084411E-01  2.490267E-03  3.111578E-04  1.427141E-04
   -27.7500  1.020479E+00  3.295107E-03  6.314535E-04  3.650708E-04
   -27.3000  1.943141E+00  1.645716E-03  3.320147E-04  2.061431E-04
   -26.8500  1.389876E-01  1.154674E-03  1.522793E-04  7.626131E-05
   -26.4000  4.390673E-02  1.216205E-03  1.442084E-04  6.882940E-05
   -25.9500  2.274466E-02  1.394567E-03  1.544528E-04  6.969819E-05
   -25.5000  1.621684E-02  1.813897E-03  1.879219E-04  7.609582E-05
   -25.0500  2.591199E-02  4.045237E-03  3.757923E-04  1.096053E-04
   -24.6000  6.195167E-02  1.560014E-02  1.769729E-03  4.259692E-04
   -24.1500  5.895512E-02  1.133853E-02  1.052391E-03  3.019617E-04
   -23.7000  9.710783E-03  3.040094E-03  3.171127E-04  1.174729E-04
   -23.2500  5.138101E-03  2.256065E-03  1.940588E-04  8.055183E-05
   -22.8000  3.544916E-03  2.217699E-03  1.730163E-04  7.490684E-05
   -22.3500  2.710861E-03  2.350427E-03  1.682064E-04  7.370523E-05
   -21.9000  2.187341E-03  2.574429E-03  1.690100E-04  7.395688E-05
   -21.4500  1.825606E-03  2.877309E-03  1.726712E-04  7.490917E-05
   -21.0000  1.561004E-03  3.268510E-03  1.783235E-04  7.632950E-05
   -20.5500  1.360826E-03  3.774067E-03  1.858241E-04  7.816362E-05
   -20.1000  1.206866E-03  4.437517E-03  1.954214E-04  8.043894E-05
   -19.6500  1.089338E-03  5.338774E-03  2.081545E-04  8.341886E-05
   -19.2000  9.971344E-04  6.595364E-03  2.237173E-04  8.676191E-05
   -18.7500  9.561618E-04  8.676653E-03  2.544513E-04  9.432822E-05
   -18.3000  1.085572E-03  1.353760E-02  3.853420E-04  1.726623E-04
   -17.8500  5.380391E-03  6.800066E-02  3.002067E-03  5.749633E-04
   -17.4000  1.331056E-03  5.300125E-02  6.460024E-04  1.179832E-04
   -16.9500  6.233727E-03  2.632815E-01  3.048119E-03  5.324630E-04
   -16.5000  7.967181E-03  2.733132E-01  3.465563E-03  7.593832E-04
   -16.0500  9.212565E-03  4.675697E-01  5.363418E-03  1.172774E-03
   -15.6000  1.081879E-02  5.263227E-01  6.027223E-03  1.404726E-03
   -15.1500  8.168887E-03  7.412044E-01  7.180635E-03  1.542502E-03
   -14.7000  7.910877E-03  9.825251E-01  6.929254E-03  1.708593E-03
   -14.2500  8.193828E-03  7.878936E-01  5.028015E-03  1.376559E-03
   -13.8000  7.933774E-03  9.070875E-01  5.843106E-03  1.456993E-03
   -13.3500  4.777066E-03  1.023682E+00  4.580713E-03  1.078618E-03
   -12.9000  3.097111E-03  1.163688E+00  3.224868E-03  8.086480E-04
   -12.4500  2.396438E-03  6.517345E-01  2.025716E-03  4.803256E-04
   -12.0000  1.455143E-03  1.575901E-01  1.491778E-03  3.607809E-04
   -11.5500  1.316054E-03  7.184154E-02  1.754094E-03  4.076490E-04
   -11.1000  1.603379E-03  5.745858E-02  3.278663E-03  6.753310E-04
   -10.6500  2.552638E-03  7.488923E-02  1.066043E-02  1.698995E-03
   -10.2000  3.949178E-03  1.273501E-01  2.564134E-02  3.746112E-03
    -9.7500  5.411692E-03  1.811084E-01  2.726021E-02  5.259770E-03
    -9.3000  7.657403E-03  2.039359E-01  2.009737E-02  7.084296E-03
    -8.8500  9.087516E-03  2.995455E-01  1.744615E-02  9.417059E-03
    -8.4000  8.513678E-03  1.865006E-01  1.446375E-02  8.046724E-03
    -7.9500  8.155853E-03  9.453094E-02  6.481232E-03  4.681542E-03
    -7.5000  1.080588E-02  3.886687E-02  5.178099E-03  1.715284E-03
    -7.0500  9.453952E-03  2.584830E-02  5.252872E-03  1.056754E-03
    -6.6000  1.856306E-02  3.468473E-02  1.078583E-02  1.570646E-03
    -6.1500  9.261164E-02  1.391614E-01  4.202602E-02  5.580575E-03
    -5.7000  7.358294E-02  2.529732E-01  4.210979E-02  7.191988E-03
    -5.2500  3.932999E-02  2.384533E-01  3.447800E-02  4.122210E-03
    -4.8000  2.900732E-02  2.004789E-01  2.642083E-02  3.164646E-03
    -4.3500  2.218328E-02  1.161168E-01  1.405311E-02  2.150935E-03
    -3.9000  1.874633E-02  1.063749E-01  1.187462E-02  2.317682E-03
    -3.4500  2.404349E-02  9.843909E-02  1.437595E-02  2.635865E-03
    -3.0000  2.574641E-02  1.175363E-01  1.693490E-02  2.936618E-03
    -2.5500  2.160618E-02  1.341585E-01  1.664576E-02  2.894782E-03
    -2.1000  1.923845E-02  1.526054E-01  1.768137E-02  2.894613E-03
    -1.6500  1.507382E-02  1.470765E-01  1.670102E-02  2.341995E-03
    -1.2000  1.533225E-02  1.219698E-01  2.087546E-02  2.318114E-03
    -0.7500  1.080702E-02  1.368752E-01  2.453928E-02  2.603078E-03
    -0.3000  7.808049E-03  1.482761E-01  2.520386E-02  2.585219E-03
     0.1500  6.801725E-03  1.413906E-01  2.624773E-02  2.647418E-03
     0.6000  8.127312E-03  1.316627E-01  3.080930E-02  3.470270E-03
     1.0500  8.765991E-03  1.260664E-01  3.681603E-02  3.756341E-03
     1.5000  6.429091E-03  1.022098E-01  3.761646E-02  3.589665E-03
     1.9500  5.053569E-03  8.497161E-02  3.904501E-02  3.651569E-03
     2.4000  4.804795E-03  7.471658E-02  4.099279E-02  3.849380E-03
     2.8500  4.525508E-03  6.606805E-02  4.150824E-02  4.120559E-03
     3.3000  4.259801E-03  6.042350E-02  4.114540E-02  4.351058E-03
     3.7500  4.482298E-03  5.638442E-02  4.242956E-02  4.497738E-03
     4.2000  4.794218E-03  5.102005E-02  4.553793E-02  4.775730E-03
     4.6500  5.085752E-03  4.563137E-02  4.848623E-02  5.151170E-03
     5.1000  5.270236E-03  4.045301E-02  4.919789E-02  5.471360E-03
     5.5500  5.334394E-03  3.735382E-02  4.826261E-02  5.726968E-03
     6.0000  5.453219E-03  3.712808E-02  4.896141E-02  6.020010E-03
     6.4500  5.668329E-03  3.889956E-02  5.257831E-02  6.680374E-03
     6.9000  5.962511E-03  4.122884E-02  5.703184E-02  7.762409E-03
     7.3500  6.343430E-03  4.207641E-02  6.035995E-02  8.532488E-03
     7.8000  6.795718E-03  4.158580E-02  6.338094E-02  8.575595E-03
     8.2500  7.353604E-03  4.193610E-02  6.751837E-02  8.620189E-03
     8.7000  7.891603E-03  4.250447E-02  6.780611E-02  8.890611E-03
     9.1500  8.137820E-03  4.117948E-02  6.292158E-02  9.247845E-03
     9.6000  8.371149E-03  3.902755E-02  5.896274E-02  9.771438E-03
    10.0500  9.094935E-03  3.697317E-02  5.839906E-02  1.059316E-02
    10.5000  1.046231E-02  3.583947E-02  5.917446E-02  1.147090E-02
    10.9500  1.195402E-02  3.603317E-02  5.922331E-02  1.202715E-02
    11.4000  1.286127E-02  3.699568E-02  5.981499E-02  1.254588E-02
    11.8500  1.303391E-02  3.797631E-02  6.266442E-02  1.339251E-02
    12.3000  1.274033E-02  3.851346E-02  6.745182E-02  1.449097E-02
    12.7500  1.219143E-02  3.894749E-02  7.233402E-02  1.544474E-02
    13.2000  1.195689E-02  3.934731E-02  7.646925E-02  1.602151E-02
    13.6500  1.278748E-02  3.872830E-02  8.025609E-02  1.640787E-02
    14.1000  1.469304E-02  3.807336E-02  8.395050E-02  1.680359E-02
    14.5500  1.688864E-02  3.841532E-02  8.834121E-02  1.721622E-02
    15.0000  1.860496E-02  3.986954E-02  9.382774E-02  1.767703E-02
