#  Fermi level (eV):  -6.015
#  Charge transfer :  -0.181
#    Electron counts for each orbital momentum:
#       0      1.844
#       1      4.186
#       2      0.151
#       3      0.000
#  Number of atoms in cluster:  99
#  Lorentzian broadening with HWHH     0.1000 eV
# -----------------------------------------------------------------------
#      e        sDOS           pDOS          dDOS          fDOS    @#
   -30.0000  4.182188E-03  5.625486E-04  9.777926E-05  5.439345E-05
   -29.5500  5.448135E-03  5.920356E-04  1.000253E-04  5.543796E-05
   -29.1000  7.406447E-03  6.246167E-04  1.025913E-04  5.672113E-05
   -28.6500  1.069296E-02  6.613450E-04  1.057015E-04  5.843877E-05
   -28.2000  1.696630E-02  7.048273E-04  1.099035E-04  6.108271E-05
   -27.7500  3.250274E-02  7.661682E-04  1.170629E-04  6.638551E-05
   -27.3000  1.581301E-01  1.066289E-03  1.481881E-04  9.609823E-05
   -26.8500  4.190458E-01  1.425051E-03  2.410781E-04  1.609805E-04
   -26.4000  1.373226E+00  1.689273E-03  7.094762E-04  5.533325E-04
   -25.9500  5.829802E-01  1.205085E-03  3.257428E-04  2.530081E-04
   -25.5000  9.331251E-02  1.046545E-03  1.524371E-04  9.170591E-05
   -25.0500  3.664015E-02  1.090860E-03  1.349284E-04  7.395120E-05
   -24.6000  1.952073E-02  1.163846E-03  1.319026E-04  6.938848E-05
   -24.1500  1.215523E-02  1.254027E-03  1.328928E-04  6.832256E-05
   -23.7000  8.344308E-03  1.356391E-03  1.354689E-04  6.872465E-05
   -23.2500  6.020441E-03  1.474296E-03  1.378398E-04  6.861386E-05
   -22.8000  4.577598E-03  1.611976E-03  1.414717E-04  6.952116E-05
   -22.3500  3.603764E-03  1.772318E-03  1.456669E-04  7.073551E-05
   -21.9000  2.915357E-03  1.960333E-03  1.503834E-04  7.218778E-05
   -21.4500  2.411311E-03  2.183154E-03  1.556784E-04  7.388648E-05
   -21.0000  2.031606E-03  2.449916E-03  1.616257E-04  7.585262E-05
   -20.5500  1.738860E-03  2.773512E-03  1.683104E-04  7.809957E-05
   -20.1000  1.509417E-03  3.173012E-03  1.759911E-04  8.076775E-05
   -19.6500  1.326700E-03  3.674532E-03  1.848377E-04  8.389654E-05
   -19.2000  1.180038E-03  4.319816E-03  1.954011E-04  8.777708E-05
   -18.7500  1.061179E-03  5.171429E-03  2.080603E-04  9.247754E-05
   -18.3000  9.662551E-04  6.338109E-03  2.237793E-04  9.873369E-05
   -17.8500  8.888781E-04  7.981572E-03  2.421031E-04  1.060966E-04
   -17.4000  8.342440E-04  1.064016E-02  2.791998E-04  1.235284E-04
   -16.9500  8.672716E-04  1.643250E-02  3.850283E-04  1.776587E-04
   -16.5000 -1.884567E-04 -1.933015E-02 -1.278935E-03 -5.831710E-04
   -16.0500  8.554567E-04  3.667632E-02  8.851419E-05  1.199297E-04
   -15.6000  3.127366E-03  3.620027E-01  2.729016E-03  1.965590E-03
   -15.1500  8.841425E-03  7.054860E-01  6.764955E-03  3.521475E-03
   -14.7000  4.530344E-03  6.635955E-01  6.090218E-03  2.900442E-03
   -14.2500  3.665003E-03  1.150756E+00  7.574795E-03  3.794464E-03
   -13.8000  3.313679E-03  1.025900E+00  7.799341E-03  3.075450E-03
   -13.3500  3.391607E-03  4.954984E-01  8.697125E-03  2.610484E-03
   -12.9000  3.356318E-03  5.281770E-01  7.601255E-03  2.088132E-03
   -12.4500  6.905155E-03  1.040360E+00  5.401273E-03  1.394699E-03
   -12.0000  3.828553E-03  1.279621E+00  2.398276E-03  9.009886E-04
   -11.5500  3.185788E-03  2.069210E-01  1.837571E-03  6.192596E-04
   -11.1000  4.413699E-03  8.357486E-02  2.005143E-03  5.697095E-04
   -10.6500  1.130789E-02  5.805208E-02  3.308445E-03  1.009416E-03
   -10.2000  1.195274E-02  5.797311E-02  5.948916E-03  1.375712E-03
    -9.7500  2.119320E-02  8.321995E-02  1.356529E-02  2.212746E-03
    -9.3000  1.469444E-02  1.068490E-01  2.936850E-02  5.440606E-03
    -8.8500  1.685093E-02  1.520086E-01  4.785134E-02  1.071429E-02
    -8.4000  1.640470E-02  2.065203E-01  4.326971E-02  8.993141E-03
    -7.9500  1.796947E-02  2.046203E-01  3.314653E-02  8.049890E-03
    -7.5000  3.236735E-02  2.350216E-01  2.557196E-02  7.219788E-03
    -7.0500  2.083364E-02  2.026464E-01  2.216681E-02  5.004482E-03
    -6.6000  1.272921E-02  2.598907E-01  3.202814E-02  6.535326E-03
    -6.1500  1.301072E-02  5.025895E-01  3.051706E-02  1.061415E-02
    -5.7000  1.180847E-02  3.595855E-01  2.208926E-02  9.753780E-03
    -5.2500  1.391235E-02  1.776934E-01  1.338972E-02  6.020289E-03
    -4.8000  2.088497E-02  1.349029E-01  1.093083E-02  4.657251E-03
    -4.3500  2.256915E-02  1.293913E-01  1.230873E-02  5.022997E-03
    -3.9000  2.627930E-02  1.376908E-01  1.345021E-02  5.011168E-03
    -3.4500  2.225701E-02  1.282038E-01  1.333727E-02  4.193718E-03
    -3.0000  1.624525E-02  1.194617E-01  1.331298E-02  3.755961E-03
    -2.5500  1.423887E-02  1.227455E-01  1.281962E-02  3.495202E-03
    -2.1000  1.372001E-02  1.125465E-01  1.247843E-02  3.288484E-03
    -1.6500  1.330941E-02  9.270143E-02  1.274448E-02  3.180440E-03
    -1.2000  1.265039E-02  8.182484E-02  1.308386E-02  3.167881E-03
    -0.7500  1.227422E-02  8.043211E-02  1.360031E-02  3.195109E-03
    -0.3000  1.342694E-02  8.030323E-02  1.475788E-02  3.175079E-03
     0.1500  1.737235E-02  7.689835E-02  1.646968E-02  3.131153E-03
     0.6000  2.309059E-02  7.333466E-02  1.835400E-02  3.189587E-03
     1.0500  2.098699E-02  7.053033E-02  1.948185E-02  3.263817E-03
     1.5000  1.708415E-02  7.171553E-02  2.098262E-02  3.225688E-03
     1.9500  1.473260E-02  7.711748E-02  2.352539E-02  3.204513E-03
     2.4000  1.371194E-02  8.326288E-02  2.695959E-02  3.281511E-03
     2.8500  1.328461E-02  8.508817E-02  3.048654E-02  3.366864E-03
     3.3000  1.283833E-02  8.405822E-02  3.297246E-02  3.532641E-03
     3.7500  1.219301E-02  8.150937E-02  3.406769E-02  3.833111E-03
     4.2000  1.151553E-02  7.732405E-02  3.464020E-02  4.204806E-03
     4.6500  1.115320E-02  7.339662E-02  3.555628E-02  4.568083E-03
     5.1000  1.130061E-02  7.031243E-02  3.713841E-02  4.911810E-03
     5.5500  1.194707E-02  6.828775E-02  3.931640E-02  5.237281E-03
     6.0000  1.293949E-02  6.774373E-02  4.159912E-02  5.484024E-03
     6.4500  1.398877E-02  6.781194E-02  4.382525E-02  5.631374E-03
     6.9000  1.463974E-02  6.727874E-02  4.592866E-02  5.739079E-03
     7.3500  1.458293E-02  6.587291E-02  4.767265E-02  5.859953E-03
     7.8000  1.391958E-02  6.388666E-02  4.973320E-02  6.051106E-03
     8.2500  1.274126E-02  6.208939E-02  5.276729E-02  6.371172E-03
     8.7000  1.116699E-02  6.114167E-02  5.665091E-02  6.837244E-03
     9.1500  9.669708E-03  6.047695E-02  6.134735E-02  7.399960E-03
     9.6000  8.641101E-03  5.864598E-02  6.683620E-02  7.971939E-03
    10.0500  8.089345E-03  5.503703E-02  7.209368E-02  8.510359E-03
    10.5000  7.874392E-03  5.097255E-02  7.536114E-02  9.076258E-03
    10.9500  7.914937E-03  4.793413E-02  7.642647E-02  9.793467E-03
    11.4000  8.157569E-03  4.615455E-02  7.657666E-02  1.074625E-02
    11.8500  8.497622E-03  4.498824E-02  7.596018E-02  1.184317E-02
    12.3000  8.831735E-03  4.379756E-02  7.422075E-02  1.286036E-02
    12.7500  9.083707E-03  4.227821E-02  7.188372E-02  1.369473E-02
    13.2000  9.212127E-03  4.040134E-02  6.979258E-02  1.435496E-02
    13.6500  9.282012E-03  3.856993E-02  6.859490E-02  1.486543E-02
    14.1000  9.423821E-03  3.733127E-02  6.864157E-02  1.529144E-02
    14.5500  9.647682E-03  3.699315E-02  6.987940E-02  1.568271E-02
    15.0000  9.894179E-03  3.748471E-02  7.185439E-02  1.602631E-02
