#  Fermi level (eV):  -7.404
#  Charge transfer :   0.296
#    Electron counts for each orbital momentum:
#       0      0.682
#       1      0.813
#       2      7.209
#       3      0.000
#  Number of atoms in cluster:  99
#  Lorentzian broadening with HWHH     0.1000 eV
# -----------------------------------------------------------------------
#      e        sDOS           pDOS          dDOS          fDOS    @#
   -30.0000  1.261433E-03  1.180566E-03  2.353700E-03  9.260637E-04
   -29.5500  2.096658E-03  1.520115E-03  3.225688E-03  1.048822E-03
   -29.1000  4.443666E-03  2.195751E-03  5.240304E-03  1.298401E-03
   -28.6500  1.854821E-02  4.052311E-03  1.395584E-02  1.989213E-03
   -28.2000  1.022609E-01  2.500132E-02  6.519905E-02  9.700412E-03
   -27.7500  7.008368E-02  3.951944E-02  9.643450E-02  1.554074E-02
   -27.3000  5.736459E-02  9.048301E-02  2.467574E-01  3.427799E-02
   -26.8500  6.247453E-03  1.727865E-01  5.033038E-02  6.633523E-02
   -26.4000  2.376886E-03  1.328306E-02  1.058797E-02  5.514677E-03
   -25.9500  1.436642E-03  4.882287E-03  5.687061E-03  2.353904E-03
   -25.5000  1.090722E-03  2.931836E-03  4.509895E-03  1.688153E-03
   -25.0500  1.176402E-03  3.106132E-03  6.314818E-03  2.045310E-03
   -24.6000  1.191715E-03  6.818842E-03  1.340523E-02  9.435679E-03
   -24.1500  2.091120E-03  3.221714E-03  6.373343E-03  2.921074E-03
   -23.7000  7.697709E-04  1.384442E-03  3.472099E-03  1.189768E-03
   -23.2500  6.041314E-04  1.060810E-03  3.090300E-03  9.238943E-04
   -22.8000  5.592961E-04  9.335152E-04  3.069090E-03  8.283126E-04
   -22.3500  5.547146E-04  8.736907E-04  3.191551E-03  7.846198E-04
   -21.9000  5.742700E-04  8.495781E-04  3.414268E-03  7.662265E-04
   -21.4500  6.148264E-04  8.510745E-04  3.737084E-03  7.669883E-04
   -21.0000 -8.659287E-01 -3.820569E-01 -1.787231E-01 -2.555954E-01
   -20.5500  7.673460E-04  9.104157E-04  4.702440E-03  7.896422E-04
   -20.1000  8.879559E-04  9.554117E-04  5.307021E-03  7.683526E-04
   -19.6500  1.081022E-03  1.056182E-03  6.384578E-03  8.394957E-04
   -19.2000 -4.488164E-02  1.874200E-02  7.722586E-03  6.506385E-04
   -18.7500  1.570552E-03  1.038739E-03  6.371773E-03  6.299981E-05
   -18.3000  3.938342E-03  3.188179E-03  3.112006E-02  5.194894E-03
   -17.8500 -1.421344E-02 -9.667697E-02 -2.444659E-01 -3.992456E-01
   -17.4000  8.554228E-03  3.246129E-03  4.022695E-02  1.388797E-03
   -16.9500  3.326952E-02  9.292555E-03  1.595340E-01  2.909453E-03
   -16.5000  3.698841E-01  1.336313E-02  8.724088E-01  7.002858E-03
   -16.0500  1.119373E-01  3.539023E-02  4.616273E-01  9.752675E-03
   -15.6000  1.389303E-02  6.405182E-03  5.170807E-02  6.283825E-04
   -15.1500  2.056630E-02  1.866383E-01  4.868598E-01  5.757768E-02
   -14.7000  3.209343E-02  9.396343E-02  8.031382E-01  3.850414E-02
   -14.2500  4.876602E-02  9.572664E-02  5.550604E-01  3.057438E-02
   -13.8000  1.265264E-01  2.369542E-02  1.666359E-01  8.188826E-04
   -13.3500  4.364519E-02  1.149338E-01  4.639623E-01  5.341379E-02
   -12.9000  6.704124E-02  1.519054E-01  5.746237E-01  8.137461E-02
   -12.4500  4.195635E-02  1.362944E-01  3.749059E-01  8.723379E-02
   -12.0000  3.298534E-02  7.972515E-02  3.273478E-01  9.356801E-02
   -11.5500  3.791068E-02  5.166290E-02  3.309376E-01  4.664451E-02
   -11.1000  4.828503E-02  2.871700E-02  5.087727E-01  1.690859E-02
   -10.6500  4.495699E-02  2.485703E-02  9.221241E-01  9.790231E-03
   -10.2000  7.500083E-02  4.932939E-02  8.326723E-01  3.245338E-03
    -9.7500  2.953775E-02  2.384703E-02  9.087676E-01  9.174542E-03
    -9.3000  5.114621E-02  2.388675E-02  6.683358E-01  2.487420E-02
    -8.8500  2.692523E-02  2.494868E-02  4.475934E-01  4.440773E-02
    -8.4000  5.286270E-02  1.014764E-01  3.882865E-01  5.004401E-03
    -7.9500  1.014573E-02  1.252741E-02  1.723054E+00  1.219341E-02
    -7.5000  8.305809E-03  1.941269E-02  1.223561E+00  1.420504E-02
    -7.0500  7.937368E-03  3.036728E-02  6.595853E-01  1.400135E-02
    -6.6000  7.403064E-03  3.788941E-02  2.696326E-01  1.667868E-02
    -6.1500  7.184039E-03  3.315772E-02  2.210060E-01  1.985753E-02
    -5.7000  6.850056E-03  2.702700E-02  2.849838E-01  1.993518E-02
    -5.2500  7.333085E-03  2.619004E-02  4.224445E-01  1.734109E-02
    -4.8000  4.549548E-02  1.110201E-01  1.591749E-01  1.417913E-02
    -4.3500  1.657223E-02  4.696615E-02  2.509726E-01  1.970009E-02
    -3.9000  4.131978E-02  5.346394E-02  3.340120E-01  2.090461E-02
    -3.4500  8.057489E-02  4.056010E-02  5.568282E-01  2.500087E-02
    -3.0000  4.724611E-02  1.012307E-01  1.501973E-01  2.431451E-02
    -2.5500  2.321403E-02  4.286468E-02  1.768963E-01  2.470764E-02
    -2.1000  1.851020E-02  5.980854E-02  1.353536E-01  2.469576E-02
    -1.6500  1.922910E-02  8.211193E-02  1.449064E-01  3.771613E-02
    -1.2000  1.993620E-02  6.566531E-02  1.711068E-01  4.973795E-02
    -0.7500  2.908125E-02  4.955961E-02  1.833366E-01  3.770529E-02
    -0.3000  4.673508E-02  5.276380E-02  3.951437E-01  3.096713E-02
     0.1500  6.732522E-02  5.911892E-02  2.140451E-01  2.864875E-02
     0.6000  4.031940E-02  1.087252E-01  1.111512E-01  4.664922E-02
     1.0500  5.848870E-02  9.986160E-02  9.179745E-02  3.028307E-02
     1.5000  6.056239E-02  1.161700E-01  8.692462E-02  3.212955E-02
     1.9500  7.211129E-02  1.151254E-01  9.931220E-02  3.449783E-02
     2.4000  3.738147E-02  1.103947E-01  1.022323E-01  6.153202E-02
     2.8500  9.008204E-02  7.775807E-02  1.260885E-01  4.361564E-02
     3.3000  7.936766E-02  7.203112E-02  9.697612E-02  5.040767E-02
     3.7500  6.664546E-02  8.022732E-02  7.797095E-02  6.190428E-02
     4.2000  5.119774E-02  9.469479E-02  6.397676E-02  7.789333E-02
     4.6500  4.014905E-02  1.034710E-01  5.570009E-02  8.903891E-02
     5.1000  3.515825E-02  1.022316E-01  5.139721E-02  9.205514E-02
     5.5500  3.449905E-02  9.500447E-02  4.949887E-02  9.131618E-02
     6.0000  3.238716E-02  1.105468E-01  9.427365E-02  9.924638E-02
     6.4500  4.147644E-02  7.396369E-02  5.572716E-02  9.014459E-02
     6.9000  4.857190E-02  6.714207E-02  6.708733E-02  9.588394E-02
     7.3500  5.739320E-02  6.687731E-02  8.295570E-02  1.080546E-01
     7.8000  3.027229E-02  1.093812E-01  9.334169E-02  1.220037E-01
     8.2500  6.951187E-02  7.048327E-02  9.334558E-02  1.326698E-01
     8.7000  8.238555E-02  7.318267E-02  8.439142E-02  1.514378E-01
     9.1500  1.081172E-01  8.351748E-02  7.595993E-02  1.774330E-01
     9.6000  8.725336E-02  1.023431E-01  6.950168E-02  1.859834E-01
    10.0500  5.035688E-02  1.256868E-01  6.695628E-02  1.756808E-01
    10.5000  3.475178E-02  1.418525E-01  6.733206E-02  1.580289E-01
    10.9500  2.736380E-02  1.425356E-01  6.813707E-02  1.400670E-01
    11.4000  2.668493E-02  1.053242E-01  9.504464E-02  1.739871E-01
    11.8500  2.076618E-02  1.385911E-01  7.753774E-02  1.455120E-01
    12.3000  1.937257E-02  1.404016E-01  8.411598E-02  1.542648E-01
    12.7500  1.870369E-02  1.419361E-01  8.904389E-02  1.639189E-01
    13.2000  1.858624E-02  1.426096E-01  9.106313E-02  1.783020E-01
    13.6500  1.892020E-02  1.413543E-01  9.055056E-02  1.884229E-01
    14.1000  1.963436E-02  1.370128E-01  8.871666E-02  1.934500E-01
    14.5500  2.056304E-02  1.286881E-01  8.588004E-02  1.968384E-01
    15.0000  2.111788E-02  1.166002E-01  8.099627E-02  1.971129E-01
