#  Fermi level (eV):  -5.761
#  Charge transfer :  -0.148
#    Electron counts for each orbital momentum:
#       0      1.779
#       1      4.235
#       2      0.134
#       3      0.000
#  Number of atoms in cluster: 142
#  Lorentzian broadening with HWHH     0.1000 eV
# -----------------------------------------------------------------------
#      e        sDOS           pDOS          dDOS          fDOS    @#
   -30.0000  7.572079E-03  6.174091E-04  9.812219E-05  5.268774E-05
   -29.5500  1.127086E-02  6.578125E-04  1.019729E-04  5.452824E-05
   -29.1000  1.929525E-02  7.100646E-04  1.080169E-04  5.742634E-05
   -28.6500  5.061160E-02  8.028369E-04  1.235546E-04  6.354449E-05
   -28.2000  1.990294E-01  1.325504E-03  1.921052E-04  8.385231E-05
   -27.7500  5.016131E-01  1.669862E-03  3.819367E-04  1.689995E-04
   -27.3000  1.025695E+00  3.132712E-03  8.054358E-04  5.923568E-04
   -26.8500  1.416411E+00  2.897069E-03  1.049113E-03  7.861565E-04
   -26.4000  3.699617E-01  2.116802E-03  3.171749E-04  2.058536E-04
   -25.9500  5.121097E-02  1.169060E-03  1.484140E-04  8.123681E-05
   -25.5000  2.292586E-02  1.180470E-03  1.330943E-04  6.883356E-05
   -25.0500  1.352697E-02  1.268820E-03  1.336462E-04  6.679822E-05
   -24.6000  1.101070E-02  2.474708E-03  8.287917E-04  8.597192E-04
   -24.1500  1.026477E-02  2.212729E-03  2.070778E-04  9.127444E-05
   -23.7000  5.014526E-03  1.633754E-03  1.391301E-04  6.574330E-05
   -23.2500  3.761387E-03  1.747904E-03  1.382149E-04  6.488908E-05
   -22.8000  2.997855E-03  1.924018E-03  1.413750E-04  6.556646E-05
   -22.3500  2.459739E-03  2.140229E-03  1.456666E-04  6.669352E-05
   -21.9000  2.061549E-03  2.402360E-03  1.507272E-04  6.810013E-05
   -21.4500  1.757895E-03  2.722629E-03  1.565302E-04  6.975558E-05
   -21.0000  1.006711E-02  1.174499E-01  1.320144E-01 -1.381403E-01
   -20.5500  1.335427E-03  3.624566E-03  1.710136E-04  7.406134E-05
   -20.1000  1.186644E-03  4.278814E-03  1.801265E-04  7.684498E-05
   -19.6500  1.067912E-03  5.155088E-03  1.910809E-04  8.028253E-05
   -19.2000  1.216703E-02 -1.061243E-02  1.399078E-03 -6.577581E-05
   -18.7500  9.017472E-04  8.173470E-03  2.218624E-04  9.034159E-05
   -18.3000  8.465839E-04  1.098017E-02  2.439122E-04  9.701329E-05
   -17.8500  8.740455E-04  1.691605E-02  3.015801E-04  1.225082E-04
   -17.4000  1.140447E-03  3.353315E-02  4.557850E-04  3.559440E-04
   -16.9500  1.181326E-04 -2.807088E-02 -3.521249E-03 -1.969014E-03
   -16.5000  5.737591E-03  6.650336E-01  2.901366E-03  1.303482E-03
   -16.0500  8.711181E-03  6.414648E-01  3.296520E-03  1.487917E-03
   -15.6000  3.589937E-02  2.387738E-01  3.339220E-04  7.112257E-05
   -15.1500  5.936708E-03  6.854526E-01  6.474476E-03  2.323903E-03
   -14.7000  5.604888E-03  8.763180E-01  8.562090E-03  2.427574E-03
   -14.2500  5.907226E-03  6.653303E-01  8.884388E-03  1.973708E-03
   -13.8000  1.572892E-02  1.971383E+00  5.792563E-04  7.713717E-05
   -13.3500  1.154921E-02  3.460780E-01  8.442200E-03  1.690793E-03
   -12.9000  1.571970E-02  5.387658E-01  9.471048E-03  2.033429E-03
   -12.4500  8.903075E-03  9.361755E-01  7.737331E-03  1.838558E-03
   -12.0000  3.956850E-03  8.439288E-01  4.125491E-03  1.092997E-03
   -11.5500  2.278443E-03  3.357138E-01  2.417287E-03  5.792281E-04
   -11.1000  1.522962E-03  9.766049E-02  2.540400E-03  5.205559E-04
   -10.6500  1.729245E-03  7.098773E-02  5.406791E-03  8.465371E-04
   -10.2000  7.899366E-03  4.204756E-01  3.463538E-03  1.928103E-04
    -9.7500  4.508925E-03  1.270656E-01  2.480784E-02  3.668047E-03
    -9.3000  3.728462E-03  1.449785E-01  2.833440E-02  4.739089E-03
    -8.8500  4.062323E-03  1.684105E-01  3.845589E-02  9.971532E-03
    -8.4000  6.999222E-03  1.691864E-01  4.897379E-03  3.193455E-04
    -7.9500  4.101598E-03  1.478288E-01  2.083465E-02  6.648935E-03
    -7.5000  3.620158E-03  1.260802E-01  2.132834E-02  5.984150E-03
    -7.0500  4.542368E-03  2.166747E-01  1.592580E-02  6.854499E-03
    -6.6000  7.956597E-03  7.236705E-02  4.610560E-03  1.905149E-03
    -6.1500  1.620857E-02  4.404459E-02  4.319749E-03  1.792335E-03
    -5.7000  5.387512E-02  5.210627E-02  9.446175E-03  4.630833E-03
    -5.2500  8.953872E-02  9.591272E-02  2.334169E-02  1.080563E-02
    -4.8000  7.874599E-03  6.936850E-02  1.113822E-02  8.502529E-04
    -4.3500  3.149873E-02  2.652794E-01  3.119051E-02  6.017026E-03
    -3.9000  1.784467E-02  2.570028E-01  2.614897E-02  5.199893E-03
    -3.4500  1.351862E-02  1.836279E-01  1.690707E-02  3.640106E-03
    -3.0000  1.137825E-02  9.492799E-02  1.536546E-02  1.241721E-03
    -2.5500  2.137800E-02  1.184850E-01  1.275485E-02  1.794531E-03
    -2.1000  1.955944E-02  9.470838E-02  1.113692E-02  1.460210E-03
    -1.6500  2.012196E-02  9.693409E-02  1.125895E-02  1.483467E-03
    -1.2000  2.510266E-02  9.922727E-02  1.267817E-02  1.592265E-03
    -0.7500  2.629013E-02  9.128115E-02  1.584920E-02  1.575960E-03
    -0.3000  2.310720E-02  1.005504E-01  1.900470E-02  1.501143E-03
     0.1500  2.150553E-02  1.160374E-01  1.927837E-02  1.521404E-03
     0.6000  1.155259E-02  7.185345E-02  2.498224E-02  2.433286E-03
     1.0500  1.474129E-02  1.085676E-01  2.139594E-02  1.948446E-03
     1.5000  1.122051E-02  1.084434E-01  2.663126E-02  2.798510E-03
     1.9500  8.623118E-03  1.151394E-01  3.319268E-02  4.197229E-03
     2.4000  1.167863E-02  6.486263E-02  3.054612E-02  3.240044E-03
     2.8500  6.657507E-03  9.459197E-02  2.862083E-02  4.129811E-03
     3.3000  6.808348E-03  7.296833E-02  2.688035E-02  3.504168E-03
     3.7500  7.167639E-03  6.676274E-02  2.887437E-02  3.418028E-03
     4.2000  7.930520E-03  7.103642E-02  3.359925E-02  3.694464E-03
     4.6500  8.730890E-03  7.724562E-02  3.861908E-02  4.204325E-03
     5.1000  9.124065E-03  7.705623E-02  4.216009E-02  4.744967E-03
     5.5500  9.260924E-03  7.478526E-02  4.461118E-02  5.111126E-03
     6.0000  1.200326E-02  5.585387E-02  4.289860E-02  5.319352E-03
     6.4500  7.432075E-03  6.620681E-02  4.692243E-02  5.599124E-03
     6.9000  6.674355E-03  5.551482E-02  4.533196E-02  5.836917E-03
     7.3500  6.203330E-03  4.688094E-02  4.556278E-02  6.063481E-03
     7.8000  1.219650E-02  5.301889E-02  4.954823E-02  6.604082E-03
     8.2500  5.763072E-03  4.327074E-02  5.361338E-02  6.471964E-03
     8.7000  5.848887E-03  4.645295E-02  5.782450E-02  6.540194E-03
     9.1500  6.211653E-03  5.185549E-02  6.288792E-02  6.738094E-03
     9.6000  6.756229E-03  5.590231E-02  6.744440E-02  7.248927E-03
    10.0500  7.043480E-03  5.176681E-02  6.769293E-02  7.929535E-03
    10.5000  7.135895E-03  4.614052E-02  6.581240E-02  8.475497E-03
    10.9500  7.380515E-03  4.307698E-02  6.245044E-02  8.917133E-03
    11.4000  1.262876E-02  4.950723E-02  6.339723E-02  9.681056E-03
    11.8500  8.115638E-03  4.000953E-02  5.701564E-02  9.868496E-03
    12.3000  8.042435E-03  3.841065E-02  5.810953E-02  1.024885E-02
    12.7500  8.068866E-03  3.704437E-02  6.028493E-02  1.069410E-02
    13.2000  8.305972E-03  3.584658E-02  6.292757E-02  1.121840E-02
    13.6500  8.503528E-03  3.390302E-02  6.719473E-02  1.180423E-02
    14.1000  8.589468E-03  3.137682E-02  7.168805E-02  1.238845E-02
    14.5500  8.727046E-03  2.945413E-02  7.442087E-02  1.297726E-02
    15.0000  9.087458E-03  2.876889E-02  7.565829E-02  1.370382E-02
