#  Fermi level (eV):  -6.231
#  Charge transfer :  -0.191
#    Electron counts for each orbital momentum:
#       0      1.815
#       1      4.260
#       2      0.116
#       3      0.000
#  Number of atoms in cluster: 119
#  Lorentzian broadening with HWHH     0.1000 eV
# -----------------------------------------------------------------------
#      e        sDOS           pDOS          dDOS          fDOS    @#
   -30.0000  4.735134E-03  5.800293E-04  9.861692E-05  5.406921E-05
   -29.5500  6.377245E-03  6.159991E-04  1.013125E-04  5.525513E-05
   -29.1000  9.169996E-03  6.605809E-04  1.046641E-04  5.680375E-05
   -28.6500  1.485674E-02  7.254250E-04  1.093945E-04  5.908465E-05
   -28.2000  3.395344E-02  8.852948E-04  1.183678E-04  6.332422E-05
   -27.7500  2.006371E-01  2.149462E-03  1.579177E-04  7.828125E-05
   -27.3000  2.454820E-01  2.782037E-03  3.222893E-04  1.239700E-04
   -26.8500  5.888214E-01  3.358198E-03  5.804737E-04  4.900409E-04
   -26.4000  1.379437E+00  3.469225E-03  8.878395E-04  6.977349E-04
   -25.9500  7.261342E-01  1.879278E-03  4.379049E-04  2.040484E-04
   -25.5000  8.778031E-02  1.147656E-03  1.596103E-04  8.491119E-05
   -25.0500  3.350113E-02  1.146637E-03  1.380272E-04  7.140033E-05
   -24.6000  2.167618E-02  1.804421E-03  5.616061E-04  4.910107E-04
   -24.1500  1.119341E-02  1.292153E-03  1.342878E-04  6.657953E-05
   -23.7000  7.691845E-03  1.395951E-03  1.363627E-04  6.653397E-05
   -23.2500  5.626208E-03  1.518654E-03  1.394460E-04  6.702861E-05
   -22.8000  4.304047E-03  1.662741E-03  1.432627E-04  6.786045E-05
   -22.3500  3.406574E-03  1.832400E-03  1.477281E-04  6.894081E-05
   -21.9000  2.769773E-03  2.033677E-03  1.528595E-04  7.024050E-05
   -21.4500  2.302233E-03  2.274890E-03  1.587363E-04  7.175831E-05
   -21.0000  1.156883E-02 -1.632570E-01  5.473539E-01 -1.005389E+00
   -20.5500  1.677567E-03  2.929125E-03  1.733333E-04  7.553454E-05
   -20.1000  1.464603E-03  3.383501E-03  1.825412E-04  7.787710E-05
   -19.6500  1.297062E-03  3.971292E-03  1.938248E-04  8.074167E-05
   -19.2000  1.253657E-02  1.921981E-03  1.591104E-03 -2.079255E-04
   -18.7500  1.058472E-03  5.831190E-03  2.253759E-04  8.832365E-05
   -18.3000  9.819618E-04  7.431694E-03  2.506556E-04  9.430122E-05
   -17.8500  9.250701E-04  9.944288E-03  2.855465E-04  1.018617E-04
   -17.4000  9.545021E-04  1.512207E-02  3.723088E-04  1.244440E-04
   -16.9500  1.215906E-03  2.993628E-02  6.371784E-04  2.936292E-04
   -16.5000  5.092382E-03  1.105743E-01  2.325550E-03  3.759312E-04
   -16.0500  5.226104E-03  4.307567E-01  5.115459E-03  1.120838E-03
   -15.6000  3.059427E-02  7.434739E-02  2.481642E-04  7.347058E-05
   -15.1500  9.093789E-03  5.976657E-01  8.618256E-03  2.174552E-03
   -14.7000  9.323353E-03  5.919302E-01  8.222012E-03  2.232159E-03
   -14.2500  1.093918E-02  7.056396E-01  8.381644E-03  2.308384E-03
   -13.8000  1.400516E-02  1.129554E+00  5.192807E-04  8.234089E-05
   -13.3500  8.932070E-03  6.009867E-01  6.641650E-03  1.751314E-03
   -12.9000  1.650633E-02  5.468766E-01  7.243308E-03  2.326815E-03
   -12.4500  1.160705E-02  7.418804E-01  7.752586E-03  1.834814E-03
   -12.0000  6.956208E-03  7.516828E-01  5.715497E-03  1.466975E-03
   -11.5500  4.765255E-03  7.914072E-01  4.674467E-03  1.082991E-03
   -11.1000  3.196344E-03  5.076230E-01  3.568222E-03  8.406977E-04
   -10.6500  3.318879E-03  2.651000E-01  3.810072E-03  8.712165E-04
   -10.2000  6.150332E-03  3.797723E-01  2.962062E-03  1.928794E-04
    -9.7500  5.606730E-03  1.205318E-01  1.198495E-02  2.211286E-03
    -9.3000  9.160340E-03  1.637058E-01  2.405461E-02  4.512866E-03
    -8.8500  1.018054E-02  1.871255E-01  2.478842E-02  6.530535E-03
    -8.4000  6.803507E-03  2.062417E-01  5.788155E-03  3.266895E-04
    -7.9500  8.965675E-03  3.540482E-01  2.646947E-02  1.262508E-02
    -7.5000  1.326088E-02  2.125551E-01  1.260372E-02  6.172034E-03
    -7.0500  1.052325E-02  1.140288E-01  9.450905E-03  4.198867E-03
    -6.6000  1.316347E-02  5.937741E-02  5.157250E-03  1.642486E-03
    -6.1500  2.088503E-02  5.021516E-02  5.924784E-03  1.257964E-03
    -5.7000  2.156332E-02  4.503996E-02  9.106989E-03  1.513069E-03
    -5.2500  3.762541E-02  5.155366E-02  1.718837E-02  2.495927E-03
    -4.8000  1.045786E-02  1.057564E-01  1.244838E-02  8.758320E-04
    -4.3500  4.370951E-02  2.456481E-01  3.911875E-02  7.652271E-03
    -3.9000  2.177838E-02  2.225231E-01  3.083693E-02  5.343963E-03
    -3.4500  2.259552E-02  2.342711E-01  3.362333E-02  4.439750E-03
    -3.0000  1.184220E-02  1.004647E-01  1.628286E-02  1.343907E-03
    -2.5500  1.306226E-02  1.397857E-01  1.939827E-02  2.982034E-03
    -2.1000  1.181196E-02  9.704987E-02  1.243701E-02  2.178174E-03
    -1.6500  1.438658E-02  8.628294E-02  1.029976E-02  1.881231E-03
    -1.2000  1.913197E-02  9.486265E-02  1.060579E-02  1.971189E-03
    -0.7500  1.974003E-02  1.050860E-01  1.285347E-02  2.092003E-03
    -0.3000  1.831428E-02  1.073383E-01  1.657463E-02  2.154468E-03
     0.1500  1.732106E-02  1.031906E-01  2.018044E-02  2.225410E-03
     0.6000  1.215529E-02  7.506484E-02  2.686400E-02  2.694172E-03
     1.0500  1.898449E-02  1.032072E-01  2.298250E-02  2.683394E-03
     1.5000  1.739785E-02  1.085431E-01  2.412688E-02  2.992396E-03
     1.9500  1.520645E-02  1.100135E-01  2.634016E-02  3.349272E-03
     2.4000  1.234900E-02  6.758509E-02  3.299025E-02  3.615840E-03
     2.8500  1.155591E-02  1.012295E-01  3.452864E-02  4.015449E-03
     3.3000  1.070837E-02  1.059193E-01  4.152511E-02  4.124126E-03
     3.7500  9.996194E-03  1.027161E-01  4.453182E-02  4.274216E-03
     4.2000  8.990483E-03  8.852685E-02  4.451046E-02  4.637174E-03
     4.6500  8.301387E-03  8.052350E-02  4.459594E-02  5.154762E-03
     5.1000  7.640982E-03  7.195518E-02  4.426521E-02  5.468719E-03
     5.5500  7.129412E-03  6.333886E-02  4.481406E-02  5.724224E-03
     6.0000  1.280381E-02  5.819514E-02  4.655880E-02  6.002712E-03
     6.4500  6.889272E-03  5.406774E-02  4.482720E-02  6.378093E-03
     6.9000  6.953675E-03  4.920325E-02  4.424957E-02  6.523369E-03
     7.3500  7.093250E-03  4.432720E-02  4.339412E-02  6.545183E-03
     7.8000  1.305844E-02  5.534176E-02  5.383103E-02  7.481251E-03
     8.2500  7.238142E-03  3.969945E-02  4.391568E-02  6.643546E-03
     8.7000  7.457085E-03  3.963318E-02  4.629851E-02  6.918700E-03
     9.1500  7.821633E-03  4.053685E-02  4.987596E-02  7.427363E-03
     9.6000  8.162601E-03  4.226777E-02  5.428695E-02  8.147407E-03
    10.0500  8.341145E-03  4.380396E-02  5.805739E-02  8.915645E-03
    10.5000  8.332292E-03  4.434977E-02  6.143428E-02  9.596762E-03
    10.9500  8.193908E-03  4.546756E-02  6.740974E-02  1.018395E-02
    11.4000  1.360340E-02  5.197346E-02  6.887404E-02  1.102501E-02
    11.8500  8.090764E-03  4.573491E-02  7.715398E-02  1.122284E-02
    12.3000  8.446144E-03  4.249494E-02  7.449763E-02  1.143736E-02
    12.7500  8.919013E-03  4.077180E-02  7.201126E-02  1.171363E-02
    13.2000  9.486395E-03  4.052952E-02  7.109932E-02  1.225853E-02
    13.6500  1.019378E-02  4.144906E-02  7.218120E-02  1.303530E-02
    14.1000  1.103239E-02  4.284596E-02  7.560144E-02  1.384979E-02
    14.5500  1.188387E-02  4.364019E-02  8.111747E-02  1.453246E-02
    15.0000  1.264090E-02  4.354497E-02  8.744457E-02  1.510325E-02
