#  Fermi level (eV):  -6.397
#  Charge transfer :   0.346
#    Electron counts for each orbital momentum:
#       0      0.590
#       1      0.757
#       2      7.308
#       3      0.000
#  Number of atoms in cluster: 144
#  Lorentzian broadening with HWHH     0.1000 eV
# -----------------------------------------------------------------------
#      e        sDOS           pDOS          dDOS          fDOS    @#
   -30.0000  1.459443E-03  1.383678E-03  2.000938E-03  9.552354E-04
   -29.5500  3.033702E-03  1.992232E-03  2.680385E-03  1.134474E-03
   -29.1000  1.596249E-02  3.988323E-03  4.310147E-03  1.663357E-03
   -28.6500  3.844567E-02  1.904811E-02  1.029791E-02  4.890699E-03
   -28.2000  7.766700E-02  5.074522E-02  4.880011E-02  1.498074E-02
   -27.7500  8.203601E-02  1.199128E-01  2.079355E-01  4.685357E-02
   -27.3000  1.226263E-02  9.819872E-02  6.745750E-02  3.943075E-02
   -26.8500  2.829983E-03  1.011455E-02  1.054965E-02  4.304656E-03
   -26.4000  1.497485E-03  3.819709E-03  5.070416E-03  1.864469E-03
   -25.9500  1.065848E-03  2.322215E-03  3.636036E-03  1.302291E-03
   -25.5000  9.848714E-04  1.945167E-03  3.422822E-03  1.163954E-03
   -25.0500  1.937385E-03  3.832307E-03  6.503360E-03  1.770695E-03
   -24.6000  9.763442E-04  3.240733E-03  1.027641E-02  7.521295E-03
   -24.1500  3.343140E-03  5.897502E-03  9.067748E-03  3.258886E-03
   -23.7000  8.690950E-04  1.442849E-03  3.344583E-03  1.048174E-03
   -23.2500  6.244015E-04  1.019340E-03  2.856777E-03  8.301828E-04
   -22.8000  5.632571E-04  8.903299E-04  2.831165E-03  7.662946E-04
   -22.3500  5.559114E-04  8.405181E-04  2.947146E-03  7.393381E-04
   -21.9000  5.771948E-04  8.277647E-04  3.151012E-03  7.301520E-04
   -21.4500  6.209735E-04  8.388618E-04  3.431346E-03  7.310992E-04
   -21.0000 -9.814033E-01 -9.892061E-02  2.232194E-01 -9.696514E-02
   -20.5500  7.852821E-04  9.188474E-04  4.247687E-03  7.473820E-04
   -20.1000  9.247305E-04  9.937029E-04  4.850633E-03  7.682640E-04
   -19.6500  1.132414E-03  1.108723E-03  5.720798E-03  8.246881E-04
   -19.2000  1.880262E-02  1.644353E-02  7.339278E-03  6.345740E-04
   -18.7500  2.023732E-03  1.590189E-03  9.466362E-03  1.243447E-03
   -18.3000  3.589233E-03  2.965920E-03  2.278460E-02  4.548425E-03
   -17.8500  6.571506E-02  1.361674E-01  2.056011E-01  4.384557E-01
   -17.4000  1.849787E-02  4.164263E-03  3.741938E-02  1.396031E-03
   -16.9500  9.457481E-02  2.144522E-02  1.910958E-01  5.412343E-03
   -16.5000  1.277486E-01  2.588719E-02  2.448928E-01  1.143785E-02
   -16.0500  1.835795E-01  6.538492E-02  4.035901E-01  1.346990E-02
   -15.6000  4.155869E-02  4.651856E-03  2.959818E-02  6.573912E-04
   -15.1500  1.046715E-01  1.573404E-01  1.113851E+00  2.037592E-02
   -14.7000  9.696406E-02  7.930578E-02  8.681846E-01  2.124242E-02
   -14.2500  3.566025E-02  1.040691E-01  6.898192E-01  3.541327E-02
   -13.8000  4.342723E-01  3.268900E-02  1.004597E-01  1.122185E-03
   -13.3500  1.059428E-02  1.590021E-01  2.562805E-01  9.589938E-02
   -12.9000  1.248518E-02  1.570318E-01  1.621353E-01  1.193624E-01
   -12.4500  6.056789E-03  6.657028E-02  7.156385E-02  8.482309E-02
   -12.0000  4.754743E-03  1.385162E-02  5.633732E-02  1.472349E-02
   -11.5500  6.305628E-03  8.436952E-03  8.166987E-02  8.143020E-03
   -11.1000  1.339339E-02  9.109764E-03  2.260535E-01  9.759583E-03
   -10.6500  2.857265E-02  1.262415E-02  6.037157E-01  1.296427E-02
   -10.2000  5.167148E-02  1.037131E-01  1.171028E+00  3.630013E-03
    -9.7500  1.585557E-02  1.145204E-02  1.412776E+00  1.934777E-02
    -9.3000  3.479198E-02  1.932444E-02  2.014281E+00  2.284722E-02
    -8.8500  1.588809E-02  1.941407E-02  2.077283E+00  3.437904E-02
    -8.4000  2.551155E-02  1.059656E-01  4.521241E-01  6.187039E-03
    -7.9500  8.099422E-03  5.541944E-03  7.612995E-01  1.077012E-02
    -7.5000  3.221482E-03  5.706365E-03  2.567187E-01  7.104158E-03
    -7.0500  3.064659E-03  6.692306E-03  1.926010E-01  6.709077E-03
    -6.6000  4.736802E-03  1.109311E-02  3.708910E-01  1.073597E-02
    -6.1500  1.098503E-02  3.617813E-02  1.799945E+00  2.872180E-02
    -5.7000  2.145528E-02  2.200275E-02  1.824926E+00  2.172277E-02
    -5.2500  2.714895E-02  1.892114E-02  5.576185E-01  1.669567E-02
    -4.8000  4.334034E-02  1.374686E-01  1.593181E-01  1.883573E-02
    -4.3500  2.536874E-02  2.100991E-02  1.697296E-01  9.892397E-03
    -3.9000  4.215197E-02  2.763201E-02  1.312693E-01  1.090719E-02
    -3.4500  7.898146E-02  3.294715E-02  1.185106E-01  1.361559E-02
    -3.0000  4.821696E-02  1.159577E-01  1.591025E-01  3.118188E-02
    -2.5500  6.033038E-02  5.997595E-02  1.275874E-01  1.554203E-02
    -2.1000  6.300463E-02  4.812199E-02  1.088444E-01  1.720232E-02
    -1.6500  6.913941E-02  3.818879E-02  8.120476E-02  1.926331E-02
    -1.2000  1.023573E-01  4.801684E-02  6.847793E-02  2.484526E-02
    -0.7500  1.536980E-01  7.431629E-02  6.755992E-02  3.648612E-02
    -0.3000  1.761493E-01  8.071567E-02  5.001507E-02  4.468294E-02
     0.1500  2.120922E-01  7.551910E-02  4.998174E-02  4.598563E-02
     0.6000  4.068817E-02  1.210995E-01  1.192473E-01  5.861415E-02
     1.0500  1.418034E-01  1.086979E-01  5.036895E-02  6.271953E-02
     1.5000  9.952017E-02  1.101529E-01  4.758100E-02  6.420470E-02
     1.9500  8.557277E-02  1.190294E-01  4.496904E-02  6.883619E-02
     2.4000  3.756061E-02  1.213842E-01  1.108848E-01  7.646063E-02
     2.8500  7.703209E-02  1.404805E-01  5.701737E-02  7.588365E-02
     3.3000  5.478753E-02  1.376387E-01  6.719302E-02  7.111448E-02
     3.7500  3.843381E-02  1.341429E-01  8.006739E-02  6.644923E-02
     4.2000  3.094502E-02  1.341301E-01  9.737793E-02  6.912973E-02
     4.6500  2.843867E-02  1.429245E-01  1.125695E-01  7.965422E-02
     5.1000  2.580286E-02  1.498788E-01  1.101263E-01  8.792539E-02
     5.5500  2.396140E-02  1.499066E-01  9.055190E-02  8.928970E-02
     6.0000  3.234436E-02  1.187348E-01  1.047356E-01  1.203669E-01
     6.4500  2.424502E-02  1.732898E-01  6.715249E-02  9.444110E-02
     6.9000  2.382455E-02  2.084554E-01  6.529115E-02  1.028556E-01
     7.3500  2.260321E-02  2.279608E-01  6.277041E-02  1.059060E-01
     7.8000  3.018005E-02  1.162492E-01  1.048295E-01  1.460090E-01
     8.2500  1.849112E-02  2.136154E-01  5.752903E-02  1.025625E-01
     8.7000  1.599740E-02  2.033634E-01  5.826048E-02  1.028561E-01
     9.1500  1.363770E-02  1.804599E-01  6.129803E-02  1.024900E-01
     9.6000  1.160181E-02  1.545196E-01  6.650894E-02  1.040521E-01
    10.0500  1.014478E-02  1.368684E-01  7.380136E-02  1.113430E-01
    10.5000  9.568402E-03  1.289720E-01  8.166465E-02  1.222052E-01
    10.9500  9.873569E-03  1.264805E-01  8.712581E-02  1.327767E-01
    11.4000  2.658642E-02  1.098494E-01  1.084810E-01  2.022502E-01
    11.8500  1.183614E-02  1.264844E-01  8.885763E-02  1.563520E-01
    12.3000  1.325316E-02  1.231688E-01  8.839484E-02  1.701097E-01
    12.7500  1.568804E-02  1.171580E-01  8.951210E-02  1.793046E-01
    13.2000  1.846480E-02  1.130391E-01  9.059613E-02  1.808152E-01
    13.6500  1.978661E-02  1.136554E-01  8.902247E-02  1.828011E-01
    14.1000  1.983396E-02  1.182858E-01  8.636784E-02  1.951972E-01
    14.5500  1.957321E-02  1.232467E-01  8.556050E-02  2.149752E-01
    15.0000  1.958837E-02  1.272963E-01  8.867990E-02  2.271062E-01
