#  Fermi level (eV):  -7.180
#  Charge transfer :  -0.227
#    Electron counts for each orbital momentum:
#       0      1.796
#       1      4.315
#       2      0.116
#       3      0.000
#  Number of atoms in cluster: 114
#  Lorentzian broadening with HWHH     0.1000 eV
# -----------------------------------------------------------------------
#      e        sDOS           pDOS          dDOS          fDOS    @#
   -30.0000  9.158720E-03  6.473312E-04  1.076065E-04  5.410561E-05
   -29.5500  1.438596E-02  6.972129E-04  1.160508E-04  5.587645E-05
   -29.1000  2.711028E-02  7.713605E-04  1.345480E-04  5.894283E-05
   -28.6500  8.816298E-02  9.643083E-04  2.199300E-04  6.749793E-05
   -28.2000  3.974683E-01  3.767249E-03  6.924642E-04  1.626792E-04
   -27.7500  9.778972E-01  2.305723E-03  1.275218E-03  2.196566E-04
   -27.3000  1.515530E+00  3.544013E-03  1.560780E-03  3.488437E-04
   -26.8500  8.716991E-01  2.815365E-03  4.202294E-04  2.366857E-04
   -26.4000  8.043056E-02  1.281486E-03  1.747334E-04  8.021570E-05
   -25.9500  3.094212E-02  1.298991E-03  1.553478E-04  6.958776E-05
   -25.5000  1.777716E-02  1.523523E-03  1.639223E-04  6.978761E-05
   -25.0500  1.451695E-02  2.388169E-03  2.165539E-04  8.131433E-05
   -24.6000  4.436438E-02  2.163305E-02  9.355887E-04  3.576866E-04
   -24.1500  8.208569E-02  6.997235E-03  1.691554E-03  1.928448E-04
   -23.7000  1.189763E-02  2.466826E-03  3.079143E-04  8.461077E-05
   -23.2500  5.343191E-03  2.044229E-03  1.850862E-04  7.289455E-05
   -22.8000  3.606824E-03  2.101650E-03  1.652864E-04  7.186983E-05
   -22.3500  2.744796E-03  2.275346E-03  1.611896E-04  7.276111E-05
   -21.9000  2.209767E-03  2.522633E-03  1.622757E-04  7.449768E-05
   -21.4500  1.840214E-03  2.842618E-03  1.659494E-04  7.681549E-05
   -21.0000  1.569341E-03  3.251075E-03  1.713998E-04  7.977081E-05
   -20.5500  1.363505E-03  3.778617E-03  1.784781E-04  8.357222E-05
   -20.1000  1.204426E-03  4.482491E-03  1.876542E-04  8.893889E-05
   -19.6500  1.077257E-03  5.412528E-03  1.981052E-04  9.472630E-05
   -19.2000  9.740675E-04  6.676797E-03  2.104084E-04  1.012642E-04
   -18.7500  9.336350E-04  9.443159E-03  2.430484E-04  1.414895E-04
   -18.3000  1.033214E-03  1.717931E-02  3.592126E-04  4.445458E-04
   -17.8500  8.456042E-03  4.651829E-02  4.011922E-03  3.154702E-04
   -17.4000  9.211380E-04  4.170106E-02  4.809910E-04  5.901150E-04
   -16.9500  1.340017E-03  2.501506E-01  9.445098E-04  1.787271E-03
   -16.5000  3.990009E-03  9.795828E-01  3.151285E-03  9.025156E-03
   -16.0500  6.665472E-03  4.228178E-01  3.957862E-03  2.406345E-03
   -15.6000  9.726901E-03  3.783246E-01  5.557091E-03  1.986182E-03
   -15.1500  6.654788E-03  6.544428E-01  6.688849E-03  2.884385E-03
   -14.7000  5.662082E-03  1.022272E+00  6.302827E-03  3.458031E-03
   -14.2500  6.866911E-03  7.431953E-01  6.278961E-03  2.153110E-03
   -13.8000  6.189422E-03  7.166980E-01  5.775335E-03  1.769926E-03
   -13.3500  1.019196E-02  6.404398E-01  5.726930E-03  1.452749E-03
   -12.9000  1.018341E-02  5.345856E-01  7.293331E-03  1.702801E-03
   -12.4500  5.788111E-03  7.723269E-01  6.411821E-03  1.975653E-03
   -12.0000  3.754844E-03  6.002927E-01  5.239020E-03  1.366738E-03
   -11.5500  2.510227E-03  1.923589E-01  5.919825E-03  9.711509E-04
   -11.1000  3.203602E-03  9.729996E-02  1.351737E-02  1.330653E-03
   -10.6500  2.648233E-03  8.191672E-02  1.718314E-02  1.713613E-03
   -10.2000  3.745907E-03  8.917250E-02  3.001466E-02  1.964097E-03
    -9.7500  3.697007E-03  1.231529E-01  2.408545E-02  2.472392E-03
    -9.3000  5.253114E-03  2.110949E-01  1.968935E-02  3.823354E-03
    -8.8500  9.268207E-03  2.586745E-01  1.270075E-02  5.021886E-03
    -8.4000  1.050038E-02  1.634234E-01  1.680191E-02  4.049982E-03
    -7.9500  1.655177E-02  2.156871E-01  1.783332E-02  7.423222E-03
    -7.5000  1.536587E-02  4.291047E-01  2.100598E-02  1.589506E-02
    -7.0500  9.792601E-03  2.786689E-01  1.107340E-02  9.804736E-03
    -6.6000  7.552176E-03  1.184599E-01  6.189672E-03  4.197518E-03
    -6.1500  8.444903E-03  6.968935E-02  7.359241E-03  2.094267E-03
    -5.7000  1.703794E-02  6.155938E-02  1.691099E-02  1.689759E-03
    -5.2500  2.618536E-02  6.328696E-02  3.096096E-02  1.750818E-03
    -4.8000  2.417970E-02  7.760905E-02  2.626543E-02  2.127997E-03
    -4.3500  3.601262E-02  1.004307E-01  2.941016E-02  3.400864E-03
    -3.9000  4.055632E-02  1.083256E-01  2.260865E-02  4.931716E-03
    -3.4500  3.932979E-02  1.008234E-01  1.989980E-02  4.119734E-03
    -3.0000  2.784835E-02  1.007092E-01  1.687228E-02  3.760957E-03
    -2.5500  2.119448E-02  1.046356E-01  1.583655E-02  3.833204E-03
    -2.1000  2.055559E-02  1.010182E-01  1.798627E-02  3.671930E-03
    -1.6500  2.327203E-02  1.014768E-01  2.156293E-02  3.876777E-03
    -1.2000  2.074366E-02  1.141120E-01  2.118296E-02  4.655357E-03
    -0.7500  1.730269E-02  1.330761E-01  1.927807E-02  5.237895E-03
    -0.3000  1.719123E-02  1.096342E-01  1.920722E-02  4.288664E-03
     0.1500  1.741469E-02  9.151179E-02  2.086324E-02  3.534101E-03
     0.6000  1.566293E-02  9.104219E-02  2.379666E-02  3.240177E-03
     1.0500  1.275474E-02  9.365817E-02  2.597469E-02  3.150832E-03
     1.5000  1.050418E-02  9.470536E-02  2.639085E-02  3.256834E-03
     1.9500  9.787374E-03  9.490407E-02  2.730504E-02  3.406443E-03
     2.4000  1.074651E-02  9.219190E-02  3.030991E-02  3.443573E-03
     2.8500  1.247246E-02  8.919817E-02  3.407195E-02  3.494874E-03
     3.3000  1.333367E-02  9.384422E-02  3.707495E-02  3.698131E-03
     3.7500  1.258753E-02  1.058511E-01  3.904927E-02  4.041963E-03
     4.2000  1.067066E-02  9.317838E-02  4.005315E-02  4.215295E-03
     4.6500  9.129515E-03  7.535334E-02  4.251937E-02  4.395813E-03
     5.1000  8.678773E-03  6.424585E-02  4.583119E-02  4.673639E-03
     5.5500  8.858501E-03  5.776622E-02  4.726469E-02  5.023242E-03
     6.0000  9.149682E-03  5.478160E-02  4.590162E-02  5.415721E-03
     6.4500  9.424278E-03  5.418492E-02  4.453239E-02  5.846016E-03
     6.9000  9.720755E-03  5.550462E-02  4.485949E-02  6.326150E-03
     7.3500  9.914717E-03  5.816004E-02  4.638682E-02  6.866798E-03
     7.8000  9.908308E-03  5.948114E-02  4.916754E-02  7.347334E-03
     8.2500  9.650597E-03  5.679470E-02  5.329956E-02  7.665344E-03
     8.7000  9.167106E-03  5.232855E-02  5.804618E-02  7.979109E-03
     9.1500  8.867369E-03  4.890754E-02  6.301979E-02  8.460897E-03
     9.6000  8.987065E-03  4.731897E-02  6.711506E-02  9.128353E-03
    10.0500  9.355622E-03  4.752906E-02  6.876792E-02  9.901986E-03
    10.5000  9.672946E-03  4.861902E-02  6.855024E-02  1.071091E-02
    10.9500  9.717576E-03  4.925743E-02  6.817557E-02  1.135891E-02
    11.4000  9.505821E-03  4.896117E-02  6.843605E-02  1.169974E-02
    11.8500  9.196251E-03  4.797079E-02  6.904626E-02  1.183776E-02
    12.3000  8.973398E-03  4.645678E-02  6.970079E-02  1.190451E-02
    12.7500  8.863209E-03  4.469772E-02  7.019925E-02  1.195487E-02
    13.2000  8.768532E-03  4.299005E-02  7.069572E-02  1.208852E-02
    13.6500  8.664750E-03  4.159524E-02  7.188781E-02  1.250161E-02
    14.1000  8.665846E-03  4.056785E-02  7.427245E-02  1.332749E-02
    14.5500  8.917274E-03  3.962529E-02  7.753263E-02  1.446938E-02
    15.0000  9.518220E-03  3.846603E-02  8.065892E-02  1.564299E-02
