#  Fermi level (eV):  -7.269
#  Charge transfer :   0.267
#    Electron counts for each orbital momentum:
#       0      0.683
#       1      0.815
#       2      7.222
#       3      0.000
#  Number of atoms in cluster:  99
#  Lorentzian broadening with HWHH     0.1000 eV
# -----------------------------------------------------------------------
#      e        sDOS           pDOS          dDOS          fDOS    @#
   -30.0000  1.170968E-03  1.142264E-03  2.251405E-03  9.162499E-04
   -29.5500  1.892663E-03  1.450485E-03  3.029035E-03  1.028060E-03
   -29.1000  3.788302E-03  2.045738E-03  4.730956E-03  1.249421E-03
   -28.6500  1.303336E-02  3.563281E-03  1.089853E-02  1.821852E-03
   -28.2000  1.234316E-01  1.476804E-02  6.827862E-02  6.054355E-03
   -27.7500  1.240200E-01  2.681130E-02  1.559886E-01  1.076932E-02
   -27.3000  3.647808E-02  6.881793E-02  2.393206E-01  2.623254E-02
   -26.8500  8.449747E-03  3.028859E-01  8.642091E-02  1.158469E-01
   -26.4000  2.685456E-03  1.736293E-02  1.250036E-02  7.087401E-03
   -25.9500  1.541353E-03  5.564937E-03  6.112413E-03  2.613919E-03
   -25.5000  1.124077E-03  3.112388E-03  4.546096E-03  1.739085E-03
   -25.0500  1.091842E-03  2.795382E-03  5.363403E-03  1.834914E-03
   -24.6000  9.376784E-04  7.752591E-03  1.211018E-02  7.994887E-03
   -24.1500  3.262022E-03  4.615242E-03  8.543557E-03  4.261775E-03
   -23.7000  8.263449E-04  1.485631E-03  3.604001E-03  1.278420E-03
   -23.2500  6.157978E-04  1.091387E-03  3.096745E-03  9.481976E-04
   -22.8000  5.614610E-04  9.479231E-04  3.046369E-03  8.419442E-04
   -22.3500  5.522386E-04  8.807134E-04  3.150660E-03  7.937184E-04
   -21.9000  5.674474E-04  8.499705E-04  3.345726E-03  7.666083E-04
   -21.4500  6.040484E-04  8.468490E-04  3.643302E-03  7.621324E-04
   -21.0000 -1.423362E+00 -4.929448E-01 -3.503120E-01 -3.869630E-01
   -20.5500  7.434026E-04  8.933254E-04  4.514662E-03  7.650338E-04
   -20.1000  8.637700E-04  9.494182E-04  5.190845E-03  7.875087E-04
   -19.6500  1.044184E-03  1.044029E-03  6.208461E-03  8.562785E-04
   -19.2000 -5.747281E-02  2.318134E-02  8.022951E-03  7.325248E-04
   -18.7500  1.612571E-03  1.182622E-03  7.920621E-03  5.572881E-04
   -18.3000  2.997761E-03  2.234915E-03  1.995619E-02  2.776979E-03
   -17.8500  4.791626E-03  5.509963E-03  3.703678E-02  1.107506E-02
   -17.4000 -4.002808E-03 -3.088194E-03  1.312953E-03 -2.663832E-03
   -16.9500  2.245297E-02  1.195315E-02  1.822065E-01  2.443465E-03
   -16.5000  2.485420E-01  1.184529E-02  5.388234E-01  7.489789E-03
   -16.0500  1.437943E-01  2.388784E-02  5.768474E-01  7.898367E-03
   -15.6000  1.251860E-02  5.495858E-03  5.157989E-02  6.147014E-04
   -15.1500  2.034252E-02  2.000701E-01  5.286644E-01  6.417454E-02
   -14.7000  2.883084E-02  9.683283E-02  6.057525E-01  3.792891E-02
   -14.2500  4.480642E-02  9.300455E-02  5.273350E-01  3.001815E-02
   -13.8000  1.309727E-01  2.128914E-02  1.507248E-01  7.908176E-04
   -13.3500  4.649113E-02  1.163729E-01  4.208081E-01  5.097464E-02
   -12.9000  5.864233E-02  1.524072E-01  5.276869E-01  7.920113E-02
   -12.4500  4.910721E-02  1.377537E-01  4.164952E-01  8.408096E-02
   -12.0000  3.324017E-02  8.297631E-02  3.163294E-01  8.926243E-02
   -11.5500  3.542492E-02  5.798869E-02  3.111923E-01  5.941748E-02
   -11.1000  4.595397E-02  2.982407E-02  4.370371E-01  1.910525E-02
   -10.6500  4.775819E-02  2.406827E-02  8.584152E-01  1.036756E-02
   -10.2000  7.444088E-02  5.056460E-02  9.030072E-01  3.104168E-03
    -9.7500  2.853617E-02  2.539773E-02  1.202855E+00  8.333864E-03
    -9.3000  4.354645E-02  2.141614E-02  7.075380E-01  1.672239E-02
    -8.8500  3.447626E-02  3.624220E-02  4.891474E-01  4.159729E-02
    -8.4000  5.676824E-02  1.000971E-01  4.102664E-01  4.863379E-03
    -7.9500  1.063298E-02  1.168969E-02  1.147962E+00  1.271044E-02
    -7.5000  8.629158E-03  1.738513E-02  1.792974E+00  1.354580E-02
    -7.0500  8.183272E-03  2.744166E-02  7.421354E-01  1.395369E-02
    -6.6000  7.510196E-03  3.724895E-02  3.179922E-01  1.579328E-02
    -6.1500  7.179526E-03  3.492880E-02  2.156822E-01  1.891466E-02
    -5.7000  6.872151E-03  2.852524E-02  2.629737E-01  2.023887E-02
    -5.2500  6.962055E-03  2.592739E-02  3.649247E-01  1.765919E-02
    -4.8000  4.613885E-02  1.147591E-01  1.622791E-01  1.373835E-02
    -4.3500  1.427898E-02  4.310402E-02  2.691525E-01  1.948406E-02
    -3.9000  3.245262E-02  5.609408E-02  2.942603E-01  2.110368E-02
    -3.4500  7.968596E-02  4.250036E-02  5.429053E-01  2.379887E-02
    -3.0000  4.750575E-02  1.012616E-01  1.516866E-01  2.359585E-02
    -2.5500  2.575497E-02  4.137080E-02  1.953073E-01  2.523382E-02
    -2.1000  1.908501E-02  5.468711E-02  1.424665E-01  2.420605E-02
    -1.6500  1.925989E-02  7.841182E-02  1.436240E-01  3.433840E-02
    -1.2000  1.959513E-02  7.102568E-02  1.703311E-01  5.081231E-02
    -0.7500  2.642760E-02  5.014847E-02  1.720616E-01  3.860014E-02
    -0.3000  4.229756E-02  5.280228E-02  3.183177E-01  3.140180E-02
     0.1500  6.426218E-02  5.749311E-02  2.740743E-01  2.862753E-02
     0.6000  4.048349E-02  1.089613E-01  1.116115E-01  4.563383E-02
     1.0500  5.964674E-02  9.327916E-02  9.478008E-02  3.009081E-02
     1.5000  5.929069E-02  1.139457E-01  8.658309E-02  3.215262E-02
     1.9500  6.983659E-02  1.173018E-01  9.508943E-02  3.442531E-02
     2.4000  3.751288E-02  1.106880E-01  1.024794E-01  6.038266E-02
     2.8500  9.262511E-02  8.281721E-02  1.316634E-01  4.233430E-02
     3.3000  8.340345E-02  7.257681E-02  1.029818E-01  4.827965E-02
     3.7500  7.067138E-02  7.768168E-02  8.171472E-02  5.826147E-02
     4.2000  5.429028E-02  9.166509E-02  6.599376E-02  7.399995E-02
     4.6500  4.181596E-02  1.029290E-01  5.645058E-02  8.730670E-02
     5.1000  3.588415E-02  1.038346E-01  5.148349E-02  9.191047E-02
     5.5500  3.454282E-02  9.778713E-02  4.918470E-02  9.162601E-02
     6.0000  3.247236E-02  1.108899E-01  9.429489E-02  9.790310E-02
     6.4500  4.029275E-02  7.769182E-02  5.412573E-02  8.940122E-02
     6.9000  4.649035E-02  7.028909E-02  6.426649E-02  9.317480E-02
     7.3500  5.436414E-02  6.877535E-02  7.898830E-02  1.033341E-01
     7.8000  3.034112E-02  1.097263E-01  9.330385E-02  1.206199E-01
     8.2500  6.635610E-02  7.037209E-02  9.320509E-02  1.287073E-01
     8.7000  7.549751E-02  7.196952E-02  8.643077E-02  1.452187E-01
     9.1500  9.832052E-02  8.021729E-02  7.840485E-02  1.707966E-01
     9.6000  9.692573E-02  9.645417E-02  7.204572E-02  1.850287E-01
    10.0500  5.830524E-02  1.182624E-01  6.844610E-02  1.790110E-01
    10.5000  3.852601E-02  1.376399E-01  6.849576E-02  1.642759E-01
    10.9500  2.956321E-02  1.420597E-01  6.930453E-02  1.459222E-01
    11.4000  2.672983E-02  1.056460E-01  9.494886E-02  1.726808E-01
    11.8500  2.195011E-02  1.367611E-01  7.743697E-02  1.415751E-01
    12.3000  2.036675E-02  1.379214E-01  8.389090E-02  1.545791E-01
    12.7500  1.950957E-02  1.393663E-01  8.857353E-02  1.631741E-01
    13.2000  1.916731E-02  1.405488E-01  9.017064E-02  1.759659E-01
    13.6500  1.928706E-02  1.407937E-01  8.923813E-02  1.865309E-01
    14.1000  1.983277E-02  1.385854E-01  8.740042E-02  1.922067E-01
    14.5500  2.067952E-02  1.320351E-01  8.510060E-02  1.958920E-01
    15.0000  2.130448E-02  1.209971E-01  8.126062E-02  1.969595E-01
