#  Fermi level (eV):  -8.311
#  Charge transfer :   0.426
#    Electron counts for each orbital momentum:
#       0      0.659
#       1      0.834
#       2      7.082
#       3      0.000
#  Number of atoms in cluster: 106
#  Lorentzian broadening with HWHH     0.1000 eV
# -----------------------------------------------------------------------
#      e        sDOS           pDOS          dDOS          fDOS    @#
   -30.0000  2.335523E-03  1.921432E-03  3.414858E-03  1.259395E-03
   -29.5500  5.407191E-03  3.161975E-03  5.938651E-03  1.854245E-03
   -29.1000  3.014986E-02  8.680715E-03  2.057537E-02  5.165300E-03
   -28.6500  1.031856E-01  4.103154E-02  8.722682E-02  1.997254E-02
   -28.2000  6.858276E-02  9.802343E-02  1.604938E-01  3.816063E-02
   -27.7500  1.767363E-02  1.304544E-01  1.300854E-01  5.014884E-02
   -27.3000  4.946063E-03  1.841605E-02  2.607194E-02  7.641657E-03
   -26.8500  1.947426E-03  5.276193E-03  7.722350E-03  2.483064E-03
   -26.4000  1.243513E-03  2.822643E-03  4.702444E-03  1.553887E-03
   -25.9500  9.906998E-04  2.013564E-03  3.937525E-03  1.286264E-03
   -25.5000  1.102758E-03  2.075825E-03  4.956197E-03  1.489634E-03
   -25.0500  3.176802E-03  8.405609E-03  2.455582E-02  6.211108E-03
   -24.6000  1.292788E-02  4.697041E-03  2.451182E-02  2.225433E-02
   -24.1500  1.329298E-03  1.766234E-03  4.470522E-03  1.531624E-03
   -23.7000  7.189087E-04  1.086620E-03  3.349244E-03  9.563383E-04
   -23.2500  6.098214E-04  9.239271E-04  3.219234E-03  8.284735E-04
   -22.8000  5.889053E-04  8.630311E-04  3.319055E-03  7.791487E-04
   -22.3500  6.044344E-04  8.438592E-04  3.538082E-03  7.585938E-04
   -21.9000  6.456981E-04  8.510056E-04  3.860794E-03  7.560004E-04
   -21.4500  7.107476E-04  8.757325E-04  4.271508E-03  7.549255E-04
   -21.0000 -4.096675E-01 -5.278196E-02 -1.040037E-01 -2.133363E-02
   -20.5500  9.433110E-04  9.920280E-04  5.539298E-03  7.867381E-04
   -20.1000  1.147067E-03  1.101838E-03  6.598172E-03  8.487257E-04
   -19.6500  1.408360E-03  1.173432E-03  7.288671E-03  6.584887E-04
   -19.2000  2.090914E-02  4.613739E-03  6.039883E-03  5.473253E-04
   -18.7500  4.268463E-03  5.112495E-03  4.037240E-02  1.155281E-02
   -18.3000 -8.324113E-03 -3.898304E-03 -9.834444E-03 -3.236707E-03
   -17.8500  1.063280E-02  4.343164E-03  4.033970E-02  1.781619E-03
   -17.4000  7.513471E-02  2.530366E-02  2.776427E-01  9.217425E-03
   -16.9500  2.480974E-01  2.582807E-02  7.328861E-01  1.629324E-02
   -16.5000  1.517245E-01  3.576346E-02  4.230136E-01  1.568037E-02
   -16.0500  1.979621E-01  1.112047E-01  8.733438E-01  3.960008E-02
   -15.6000  3.011839E-02  1.000057E-02  7.562840E-02  7.539636E-04
   -15.1500  4.838067E-02  1.474889E-01  6.975600E-01  3.870066E-02
   -14.7000  3.550111E-02  9.907698E-02  5.093476E-01  4.661683E-02
   -14.2500  2.802906E-02  1.290449E-01  4.260016E-01  5.754320E-02
   -13.8000  1.607895E-01  2.719138E-02  4.608022E-01  1.206819E-03
   -13.3500  2.099319E-02  4.504120E-02  1.941333E-01  5.135823E-02
   -12.9000  1.250696E-02  2.977038E-02  1.641881E-01  3.756806E-02
   -12.4500  1.634179E-02  3.131335E-02  2.194216E-01  1.776995E-02
   -12.0000  3.371767E-02  8.757563E-02  6.328003E-01  2.585013E-02
   -11.5500  1.375585E-02  5.475017E-02  6.362952E-01  2.091900E-02
   -11.1000  1.000326E-02  3.438484E-02  6.947162E-01  2.049122E-02
   -10.6500  1.442604E-02  3.364232E-02  1.131885E+00  2.788845E-02
   -10.2000  1.050262E-01  6.808426E-02  7.734102E-01  4.443271E-03
    -9.7500  2.982308E-02  4.239574E-02  1.383967E+00  3.432148E-02
    -9.3000  2.979787E-02  4.061455E-02  1.707152E+00  3.392412E-02
    -8.8500  3.709694E-02  4.356748E-02  1.335002E+00  2.836189E-02
    -8.4000  5.734590E-02  1.108712E-01  3.403463E-01  7.601547E-03
    -7.9500  4.161871E-02  6.406321E-02  7.792967E-01  2.342577E-02
    -7.5000  4.827750E-02  7.163718E-02  5.388696E-01  2.124323E-02
    -7.0500  5.269086E-02  8.308021E-02  4.035544E-01  2.182099E-02
    -6.6000  2.883182E-02  6.500165E-02  3.007999E-01  1.966855E-02
    -6.1500  2.101444E-02  4.900536E-02  3.210512E-01  2.248352E-02
    -5.7000  1.849745E-02  5.251418E-02  3.985961E-01  2.431487E-02
    -5.2500  1.873039E-02  4.986448E-02  3.553772E-01  2.438925E-02
    -4.8000  3.953797E-02  1.229783E-01  1.272304E-01  1.487566E-02
    -4.3500  2.475611E-02  3.682075E-02  2.314751E-01  2.771184E-02
    -3.9000  2.509745E-02  3.213537E-02  2.436858E-01  3.106281E-02
    -3.4500  2.328318E-02  3.062731E-02  2.673354E-01  3.365845E-02
    -3.0000  4.768615E-02  1.081679E-01  1.385086E-01  3.034499E-02
    -2.5500  3.026048E-02  3.043202E-02  2.093432E-01  4.096994E-02
    -2.1000  4.175137E-02  3.346957E-02  1.898539E-01  4.286781E-02
    -1.6500  5.309316E-02  4.004855E-02  1.588231E-01  3.893641E-02
    -1.2000  5.847886E-02  4.319995E-02  1.308829E-01  3.524085E-02
    -0.7500  6.780479E-02  4.638926E-02  1.245707E-01  3.639766E-02
    -0.3000  7.724276E-02  5.181418E-02  1.317219E-01  4.080515E-02
     0.1500  8.492329E-02  6.051265E-02  1.377712E-01  4.536432E-02
     0.6000  4.057332E-02  1.144793E-01  1.076930E-01  5.593188E-02
     1.0500  7.405211E-02  8.068815E-02  1.111774E-01  5.100350E-02
     1.5000  6.493768E-02  9.062042E-02  9.059455E-02  5.396977E-02
     1.9500  6.590483E-02  1.033488E-01  7.965590E-02  5.794989E-02
     2.4000  3.755120E-02  1.155737E-01  1.011001E-01  7.252548E-02
     2.8500  7.210342E-02  1.154825E-01  7.076780E-02  6.582532E-02
     3.3000  6.956372E-02  1.130523E-01  6.890125E-02  6.968166E-02
     3.7500  6.658267E-02  1.110000E-01  6.900334E-02  7.470001E-02
     4.2000  6.329778E-02  1.095705E-01  7.122084E-02  8.037182E-02
     4.6500  5.956731E-02  1.087976E-01  7.403806E-02  8.561326E-02
     5.1000  5.571630E-02  1.078116E-01  7.617024E-02  9.019045E-02
     5.5500  5.261633E-02  1.068727E-01  7.764937E-02  9.515063E-02
     6.0000  3.242654E-02  1.146356E-01  9.641052E-02  1.135010E-01
     6.4500  5.029557E-02  1.057484E-01  7.645486E-02  1.064730E-01
     6.9000  4.888861E-02  1.071290E-01  7.617413E-02  1.127954E-01
     7.3500  4.720690E-02  1.099863E-01  7.785062E-02  1.189925E-01
     7.8000  3.026838E-02  1.129617E-01  9.669126E-02  1.376531E-01
     8.2500  4.601601E-02  1.173748E-01  8.430488E-02  1.290034E-01
     8.7000  4.470630E-02  1.223549E-01  8.659609E-02  1.349752E-01
     9.1500  4.126625E-02  1.268206E-01  8.731358E-02  1.430091E-01
     9.6000  3.688116E-02  1.312063E-01  8.712701E-02  1.514035E-01
    10.0500  3.288807E-02  1.360743E-01  8.669316E-02  1.573154E-01
    10.5000  2.962947E-02  1.399605E-01  8.628978E-02  1.605078E-01
    10.9500  2.696313E-02  1.410982E-01  8.591524E-02  1.631079E-01
    11.4000  2.663824E-02  1.079746E-01  1.002433E-01  1.915588E-01
    11.8500  2.343357E-02  1.383162E-01  8.584429E-02  1.728845E-01
    12.3000  2.240386E-02  1.358017E-01  8.574426E-02  1.762818E-01
    12.7500  2.166866E-02  1.322722E-01  8.496679E-02  1.756872E-01
    13.2000  2.103560E-02  1.286360E-01  8.354485E-02  1.734453E-01
    13.6500  2.032040E-02  1.255390E-01  8.178140E-02  1.717062E-01
    14.1000  1.949505E-02  1.233630E-01  8.001023E-02  1.708242E-01
    14.5500  1.872338E-02  1.222794E-01  7.848829E-02  1.708286E-01
    15.0000  1.815346E-02  1.217841E-01  7.721751E-02  1.721511E-01
