#  Fermi level (eV):  -6.756
#  Charge transfer :  -0.245
#    Electron counts for each orbital momentum:
#       0      1.840
#       1      4.324
#       2      0.081
#       3      0.000
#  Number of atoms in cluster: 144
#  Lorentzian broadening with HWHH     0.1000 eV
# -----------------------------------------------------------------------
#      e        sDOS           pDOS          dDOS          fDOS    @#
   -30.0000  8.494852E-03  6.480208E-04  1.053155E-04  5.647674E-05
   -29.5500  1.311288E-02  6.976024E-04  1.091609E-04  5.777421E-05
   -29.1000  2.484460E-02  7.785727E-04  1.153475E-04  5.975221E-05
   -28.6500  1.546928E-01  1.375426E-03  1.413520E-04  6.482698E-05
   -28.2000  1.939490E-01  1.847565E-03  2.333758E-04  9.866591E-05
   -27.7500  4.441349E-01  2.834442E-03  3.643359E-04  1.521290E-04
   -27.3000  1.896804E+00  3.163068E-03  6.285237E-04  3.151544E-04
   -26.8500  5.777326E-01  1.560676E-03  2.748878E-04  1.249134E-04
   -26.4000  7.669110E-02  1.261937E-03  1.586605E-04  7.489745E-05
   -25.9500  3.400656E-02  1.510401E-03  1.704983E-04  7.544571E-05
   -25.5000  3.630685E-02  2.829841E-03  2.823604E-04  1.029172E-04
   -25.0500  1.130213E-01  1.438692E-02  1.583753E-03  3.746961E-04
   -24.6000  9.288634E-02  9.530210E-03  1.019857E-03  3.898521E-04
   -24.1500  1.299567E-02  2.492187E-03  2.876551E-04  1.164210E-04
   -23.7000  6.799294E-03  1.893778E-03  1.786691E-04  7.907962E-05
   -23.2500  4.621316E-03  1.881472E-03  1.622271E-04  7.368464E-05
   -22.8000  3.470503E-03  1.992656E-03  1.590160E-04  7.254874E-05
   -22.3500  2.748965E-03  2.167672E-03  1.601883E-04  7.274944E-05
   -21.9000  2.253437E-03  2.396483E-03  1.635418E-04  7.357911E-05
   -21.4500  1.894074E-03  2.683550E-03  1.683579E-04  7.480333E-05
   -21.0000  1.623729E-03  3.042032E-03  1.744561E-04  7.635210E-05
   -20.5500  1.415698E-03  3.494440E-03  1.819353E-04  7.823622E-05
   -20.1000  1.252737E-03  4.074962E-03  1.910011E-04  8.049077E-05
   -19.6500  1.125029E-03  4.840600E-03  2.022451E-04  8.324752E-05
   -19.2000  1.027001E-03  5.893227E-03  2.169737E-04  8.685109E-05
   -18.7500  9.522888E-04  7.398808E-03  2.358065E-04  9.134742E-05
   -18.3000  8.947342E-04  9.664316E-03  2.578536E-04  9.621572E-05
   -17.8500  1.011815E-03  1.526811E-02  3.716102E-04  1.356145E-04
   -17.4000 -5.327272E-03 -7.899724E-02 -3.480065E-03 -4.156952E-04
   -16.9500  2.685138E-03  1.712175E-01  1.985669E-03  6.679754E-04
   -16.5000  7.242238E-03  1.595141E-01  2.825501E-03  5.831411E-04
   -16.0500  6.107071E-03  3.957616E-01  4.039827E-03  7.886143E-04
   -15.6000  8.871975E-03  6.108661E-01  5.416838E-03  1.305614E-03
   -15.1500  1.276509E-02  7.273185E-01  7.365952E-03  1.450227E-03
   -14.7000  6.150107E-03  9.961066E-01  9.613645E-03  2.074451E-03
   -14.2500  6.789268E-03  8.668538E-01  6.189531E-03  1.849275E-03
   -13.8000  8.446469E-03  6.959246E-01  6.487024E-03  1.701352E-03
   -13.3500  5.939648E-03  7.950297E-01  5.171059E-03  1.173274E-03
   -12.9000  3.824902E-03  9.588058E-01  4.242477E-03  1.014026E-03
   -12.4500  3.516300E-03  1.145964E+00  3.542581E-03  7.568240E-04
   -12.0000  2.079288E-03  3.626356E-01  1.987521E-03  4.690162E-04
   -11.5500  1.710151E-03  1.256174E-01  2.381164E-03  5.343524E-04
   -11.1000  2.139770E-03  8.491014E-02  4.230755E-03  8.961087E-04
   -10.6500  2.662947E-03  8.883091E-02  9.668374E-03  1.812232E-03
   -10.2000  4.487185E-03  1.086125E-01  1.796552E-02  2.921425E-03
    -9.7500  4.446674E-03  1.708985E-01  2.249606E-02  4.508930E-03
    -9.3000  5.579951E-03  1.764168E-01  1.607618E-02  4.850023E-03
    -8.8500  4.289590E-03  2.563211E-01  1.781931E-02  1.075927E-02
    -8.4000  7.782809E-03  1.760894E-01  1.154292E-02  5.639572E-03
    -7.9500  1.020873E-02  1.074466E-01  5.899094E-03  3.781662E-03
    -7.5000  1.678033E-02  7.014757E-02  4.851215E-03  1.775463E-03
    -7.0500  4.527071E-02  6.706995E-02  8.127361E-03  1.725003E-03
    -6.6000  6.791868E-02  7.316319E-02  1.224105E-02  2.626065E-03
    -6.1500  3.821575E-02  1.486688E-01  3.848772E-02  5.474084E-03
    -5.7000  4.681776E-02  3.115769E-01  5.235452E-02  8.268675E-03
    -5.2500  2.801778E-02  2.294782E-01  2.513111E-02  4.689505E-03
    -4.8000  2.094733E-02  1.689572E-01  1.691061E-02  3.167988E-03
    -4.3500  2.518385E-02  1.255062E-01  1.432886E-02  2.865373E-03
    -3.9000  2.187112E-02  8.553832E-02  1.038295E-02  2.083119E-03
    -3.4500  2.190228E-02  9.031218E-02  1.385557E-02  2.300935E-03
    -3.0000  2.213697E-02  1.136810E-01  1.756961E-02  2.770654E-03
    -2.5500  2.439838E-02  1.345271E-01  1.823387E-02  2.562527E-03
    -2.1000  1.993645E-02  1.544505E-01  2.216878E-02  2.690098E-03
    -1.6500  1.235881E-02  1.452861E-01  2.314736E-02  2.819711E-03
    -1.2000  1.028890E-02  1.305167E-01  1.780547E-02  2.264517E-03
    -0.7500  1.130767E-02  1.548432E-01  1.908796E-02  2.344513E-03
    -0.3000  1.109112E-02  1.379320E-01  2.513855E-02  1.820952E-03
     0.1500  1.070670E-02  1.144868E-01  3.068809E-02  1.690540E-03
     0.6000  1.081466E-02  1.024545E-01  3.576123E-02  1.964540E-03
     1.0500  9.239086E-03  8.977979E-02  3.480721E-02  2.434640E-03
     1.5000  7.977285E-03  8.246301E-02  3.293734E-02  3.029956E-03
     1.9500  6.713463E-03  8.008576E-02  3.306404E-02  3.680331E-03
     2.4000  5.568252E-03  8.023179E-02  3.561957E-02  3.947576E-03
     2.8500  5.629232E-03  8.338193E-02  4.176975E-02  4.068913E-03
     3.3000  5.891505E-03  7.939209E-02  4.822196E-02  4.335208E-03
     3.7500  5.363744E-03  6.957378E-02  4.894527E-02  4.699649E-03
     4.2000  6.029247E-03  6.134546E-02  4.772669E-02  5.358123E-03
     4.6500  7.926157E-03  5.575455E-02  4.947762E-02  5.860638E-03
     5.1000  8.217173E-03  5.484673E-02  5.439134E-02  6.383267E-03
     5.5500  7.325618E-03  5.612898E-02  5.894855E-02  6.836959E-03
     6.0000  6.560447E-03  5.332673E-02  5.880986E-02  6.734740E-03
     6.4500  6.038875E-03  4.866622E-02  5.772622E-02  6.645621E-03
     6.9000  5.822448E-03  4.577151E-02  5.733166E-02  7.037219E-03
     7.3500  5.699508E-03  4.435395E-02  5.736971E-02  7.665690E-03
     7.8000  5.690947E-03  4.358360E-02  5.842612E-02  8.317575E-03
     8.2500  5.929827E-03  4.160520E-02  6.029631E-02  8.791923E-03
     8.7000  6.210949E-03  3.856463E-02  6.254246E-02  9.084499E-03
     9.1500  6.432308E-03  3.616223E-02  6.561007E-02  9.333917E-03
     9.6000  6.958438E-03  3.474118E-02  6.805322E-02  9.650400E-03
    10.0500  7.965418E-03  3.411834E-02  6.840569E-02  1.002584E-02
    10.5000  9.504645E-03  3.464381E-02  6.823100E-02  1.059764E-02
    10.9500  1.162676E-02  3.677869E-02  6.973148E-02  1.161698E-02
    11.4000  1.369821E-02  3.979744E-02  7.381001E-02  1.316894E-02
    11.8500  1.455385E-02  4.235503E-02  7.956869E-02  1.500042E-02
    12.3000  1.423413E-02  4.281191E-02  8.223737E-02  1.647603E-02
    12.7500  1.363223E-02  4.033946E-02  7.928215E-02  1.697465E-02
    13.2000  1.334111E-02  3.771619E-02  7.680496E-02  1.706886E-02
    13.6500  1.357995E-02  3.645819E-02  7.590616E-02  1.759147E-02
    14.1000  1.429586E-02  3.660177E-02  7.575080E-02  1.835978E-02
    14.5500  1.514584E-02  3.760478E-02  7.730735E-02  1.911918E-02
    15.0000  1.568234E-02  3.877992E-02  8.099200E-02  1.996424E-02
