#  Fermi level (eV):  -6.589
#  Charge transfer :  -0.150
#    Electron counts for each orbital momentum:
#       0      1.796
#       1      4.240
#       2      0.114
#       3      0.000
#  Number of atoms in cluster: 136
#  Lorentzian broadening with HWHH     0.1000 eV
# -----------------------------------------------------------------------
#      e        sDOS           pDOS          dDOS          fDOS    @#
   -30.0000  6.176092E-03  6.038905E-04  9.728064E-05  5.302019E-05
   -29.5500  8.700471E-03  6.426224E-04  9.996638E-05  5.440459E-05
   -29.1000  1.333708E-02  6.911234E-04  1.033145E-04  5.635264E-05
   -28.6500  2.392717E-02  7.638903E-04  1.080854E-04  5.961191E-05
   -28.2000  6.883317E-02  9.721807E-04  1.177346E-04  6.806183E-05
   -27.7500  2.809542E-01  2.289150E-03  1.677576E-04  9.945591E-05
   -27.3000  1.086222E+00  3.281597E-03  2.824574E-04  2.561129E-04
   -26.8500  1.629471E+00  3.603639E-03  6.492938E-04  7.895651E-04
   -26.4000  1.096840E+00  3.342102E-03  1.063133E-03  5.997260E-04
   -25.9500  1.348263E-01  1.477760E-03  2.622410E-04  1.240728E-04
   -25.5000  3.666111E-02  1.187788E-03  1.490294E-04  7.691140E-05
   -25.0500  1.945274E-02  1.328690E-03  1.735161E-04  8.674047E-05
   -24.6000  1.336374E-02  1.502565E-03  1.810342E-04  8.749827E-05
   -24.1500  8.876708E-03  1.485762E-03  1.506946E-04  7.526286E-05
   -23.7000  5.772837E-03  1.513810E-03  1.373319E-04  6.607504E-05
   -23.2500  4.352480E-03  1.645728E-03  1.390898E-04  6.584220E-05
   -22.8000  3.424906E-03  1.808227E-03  1.425966E-04  6.648710E-05
   -22.3500  2.775392E-03  2.002550E-03  1.470059E-04  6.750964E-05
   -21.9000  2.301044E-03  2.235437E-03  1.521661E-04  6.878859E-05
   -21.4500  1.944013E-03  2.517034E-03  1.580902E-04  7.029046E-05
   -21.0000  1.669073E-03  2.862543E-03  1.649216E-04  7.203893E-05
   -20.5500  1.453781E-03  3.293958E-03  1.728831E-04  7.407957E-05
   -20.1000  1.283230E-03  3.844921E-03  1.823339E-04  7.649439E-05
   -19.6500  1.146519E-03  4.565663E-03  1.936290E-04  7.932398E-05
   -19.2000  1.037726E-03  5.544101E-03  2.077168E-04  8.280281E-05
   -18.7500  9.497842E-04  6.921872E-03  2.250840E-04  8.679971E-05
   -18.3000  8.872945E-04  9.029218E-03  2.504053E-04  9.285459E-05
   -17.8500  8.390323E-04  1.246562E-02  2.841915E-04  9.962250E-05
   -17.4000  8.901897E-04  2.025953E-02  3.850969E-04  1.332510E-04
   -16.9500  1.237636E-03  4.538268E-02  7.393253E-04  3.227169E-04
   -16.5000  1.909007E-04 -3.053090E-02 -3.235222E-03 -2.112800E-03
   -16.0500  5.830133E-03  3.590241E-01  4.408903E-03  9.932118E-04
   -15.6000  6.229635E-03  8.214455E-01  6.099479E-03  1.590344E-03
   -15.1500  5.668970E-03  6.769767E-01  6.801878E-03  1.739401E-03
   -14.7000  7.475438E-03  1.046922E+00  1.204657E-02  2.312481E-03
   -14.2500  9.288031E-03  7.493456E-01  8.786906E-03  2.018300E-03
   -13.8000  1.071693E-02  3.889414E-01  6.814063E-03  1.927755E-03
   -13.3500  1.040742E-02  5.823207E-01  7.811410E-03  2.443817E-03
   -12.9000  1.472705E-02  5.632450E-01  8.805526E-03  2.403037E-03
   -12.4500  8.895277E-03  6.625900E-01  6.832995E-03  2.036943E-03
   -12.0000  4.796149E-03  6.271825E-01  6.430077E-03  1.405633E-03
   -11.5500  3.926792E-03  4.880002E-01  4.981486E-03  1.091831E-03
   -11.1000  3.239981E-03  3.226022E-01  3.146794E-03  7.728819E-04
   -10.6500  3.268307E-03  1.254039E-01  4.274948E-03  9.470292E-04
   -10.2000  5.715496E-03  1.285302E-01  8.837384E-03  1.984071E-03
    -9.7500  6.982289E-03  1.436037E-01  1.940590E-02  3.585867E-03
    -9.3000  6.859644E-03  1.779208E-01  2.363811E-02  4.759463E-03
    -8.8500  7.421076E-03  2.214587E-01  3.098229E-02  9.295123E-03
    -8.4000  9.699029E-03  2.532675E-01  3.300074E-02  1.851344E-02
    -7.9500  9.817073E-03  2.220266E-01  2.311045E-02  1.117026E-02
    -7.5000  1.078258E-02  1.755493E-01  1.439196E-02  5.723806E-03
    -7.0500  1.233747E-02  1.168211E-01  9.529676E-03  2.940065E-03
    -6.6000  1.691424E-02  6.745148E-02  5.829246E-03  1.542337E-03
    -6.1500  2.804860E-02  5.326509E-02  6.287990E-03  1.597358E-03
    -5.7000  3.772186E-02  5.456524E-02  1.098435E-02  2.297131E-03
    -5.2500  3.185447E-02  8.215314E-02  2.053564E-02  4.145550E-03
    -4.8000  4.533639E-02  1.909374E-01  3.606152E-02  8.202664E-03
    -4.3500  2.391110E-02  2.740463E-01  3.340859E-02  5.815132E-03
    -3.9000  2.071291E-02  2.743391E-01  2.825698E-02  4.427599E-03
    -3.4500  1.909139E-02  1.888249E-01  2.117896E-02  3.463367E-03
    -3.0000  1.731517E-02  1.277477E-01  1.637428E-02  2.433663E-03
    -2.5500  1.653594E-02  1.011827E-01  1.129937E-02  1.998348E-03
    -2.1000  1.822766E-02  9.578354E-02  1.049642E-02  1.886665E-03
    -1.6500  2.009752E-02  9.486532E-02  1.123107E-02  1.819782E-03
    -1.2000  1.897453E-02  8.807435E-02  1.207078E-02  1.788472E-03
    -0.7500  1.930358E-02  8.609918E-02  1.378099E-02  1.979872E-03
    -0.3000  2.060918E-02  8.315876E-02  1.542717E-02  2.114962E-03
     0.1500  2.027748E-02  8.459382E-02  1.740060E-02  2.265193E-03
     0.6000  2.159662E-02  8.789530E-02  1.935132E-02  2.518889E-03
     1.0500  2.197179E-02  9.582210E-02  2.261830E-02  2.863677E-03
     1.5000  1.814928E-02  1.142045E-01  2.863754E-02  3.186646E-03
     1.9500  1.452268E-02  1.299387E-01  3.490501E-02  3.468067E-03
     2.4000  1.264057E-02  1.255696E-01  3.610531E-02  3.693150E-03
     2.8500  1.202171E-02  1.179318E-01  3.499652E-02  3.946252E-03
     3.3000  1.036187E-02  1.000524E-01  3.318198E-02  4.165064E-03
     3.7500  8.758953E-03  9.200969E-02  3.194609E-02  4.245595E-03
     4.2000  8.041853E-03  8.562064E-02  3.351450E-02  4.384188E-03
     4.6500  7.249440E-03  7.263928E-02  3.701124E-02  4.670535E-03
     5.1000  6.868964E-03  6.166090E-02  3.909352E-02  5.096830E-03
     5.5500  6.952280E-03  5.573769E-02  4.102112E-02  5.457482E-03
     6.0000  7.162546E-03  5.521465E-02  4.269908E-02  5.564716E-03
     6.4500  7.100416E-03  5.636578E-02  4.510257E-02  5.597527E-03
     6.9000  6.981226E-03  5.216931E-02  4.672086E-02  5.553865E-03
     7.3500  6.903412E-03  4.701486E-02  4.676317E-02  5.495598E-03
     7.8000  6.794905E-03  4.511661E-02  4.659454E-02  5.625836E-03
     8.2500  6.763041E-03  4.517153E-02  4.712579E-02  6.016210E-03
     8.7000  6.965110E-03  4.618171E-02  4.910300E-02  6.663931E-03
     9.1500  7.454373E-03  4.785647E-02  5.327151E-02  7.515879E-03
     9.6000  7.903884E-03  4.939292E-02  5.938485E-02  8.415253E-03
    10.0500  7.927179E-03  5.004542E-02  6.594541E-02  9.211732E-03
    10.5000  7.681278E-03  5.004820E-02  7.045293E-02  9.667125E-03
    10.9500  7.543396E-03  4.951630E-02  7.121275E-02  9.611999E-03
    11.4000  7.565424E-03  4.792352E-02  6.991620E-02  9.277726E-03
    11.8500  7.616620E-03  4.517808E-02  6.876488E-02  8.953392E-03
    12.3000  7.761333E-03  4.174313E-02  6.791956E-02  8.852172E-03
    12.7500  8.132582E-03  3.868193E-02  6.660701E-02  8.927500E-03
    13.2000  8.654006E-03  3.640727E-02  6.617819E-02  9.179878E-03
    13.6500  9.124781E-03  3.473885E-02  6.817891E-02  9.696812E-03
    14.1000  9.465109E-03  3.354760E-02  7.222831E-02  1.055571E-02
    14.5500  9.745647E-03  3.281236E-02  7.609376E-02  1.182250E-02
    15.0000  9.937721E-03  3.233240E-02  7.788295E-02  1.335566E-02
