#  Fermi level (eV):  -8.760
#  Charge transfer :  -0.236
#    Electron counts for each orbital momentum:
#       0      1.784
#       1      4.351
#       2      0.101
#       3      0.000
#  Number of atoms in cluster: 113
#  Lorentzian broadening with HWHH     0.1000 eV
# -----------------------------------------------------------------------
#      e        sDOS           pDOS          dDOS          fDOS    @#
   -30.0000  6.142368E-02  8.680611E-04  1.442600E-04  6.681952E-05
   -29.5500  3.246824E-01  1.562308E-03  3.171787E-04  1.129080E-04
   -29.1000  9.883295E-01  2.355430E-03  8.531945E-04  2.892927E-04
   -28.6500  1.193879E+00  3.307358E-03  8.339525E-04  3.636919E-04
   -28.2000  7.628158E-01  2.088239E-03  4.667261E-04  1.735518E-04
   -27.7500  7.595493E-02  1.298818E-03  1.756496E-04  7.702446E-05
   -27.3000  3.001709E-02  1.397341E-03  1.668037E-04  7.088463E-05
   -26.8500  1.768520E-02  1.710570E-03  1.902667E-04  7.391900E-05
   -26.4000  1.429754E-02  2.598976E-03  2.723666E-04  8.843896E-05
   -25.9500  2.320749E-02  9.218978E-03  8.479637E-04  2.003883E-04
   -25.5000  1.127204E-01  4.784653E-02  5.437145E-03  8.801660E-04
   -25.0500  1.394253E-01  1.346496E-02  1.906655E-03  4.458606E-04
   -24.6000  4.098755E-03  3.042578E-03  2.937179E-03  6.601391E-03
   -24.1500  6.619116E-03  2.447153E-03  2.180765E-04  8.124474E-05
   -23.7000  4.148173E-03  2.346601E-03  1.855921E-04  7.560090E-05
   -23.2500  3.000242E-03  2.447208E-03  1.744685E-04  7.419728E-05
   -22.8000  2.337420E-03  2.655586E-03  1.714471E-04  7.445198E-05
   -22.3500  1.905314E-03  2.953528E-03  1.725447E-04  7.565272E-05
   -21.9000  1.601100E-03  3.346147E-03  1.761112E-04  7.746772E-05
   -21.4500  1.377217E-03  3.860535E-03  1.818291E-04  7.998648E-05
   -21.0000 -2.730315E-03  8.969858E-04  1.243665E-03 -1.008472E-04
   -20.5500  1.073322E-03  5.446016E-03  1.986022E-04  8.707372E-05
   -20.1000  9.614060E-04  6.630799E-03  2.085530E-04  9.027500E-05
   -19.6500  9.469323E-04  9.399233E-03  2.482307E-04  1.135113E-04
   -19.2000  3.400338E-03  9.066827E-03  1.705872E-04  4.838731E-06
   -18.7500  5.968998E-04  5.507112E-03 -3.902339E-04 -3.126393E-04
   -18.3000  8.750838E-04  3.445654E-02  3.620460E-04  1.881159E-04
   -17.8500  1.281756E-03  1.429666E-01  7.731118E-04  5.256677E-04
   -17.4000  4.527679E-03  8.312759E-01  2.850251E-03  3.188760E-03
   -16.9500  3.908114E-03  6.530854E-01  4.236905E-03  3.534126E-03
   -16.5000  1.288536E-02  3.390561E-01  5.763511E-03  1.816659E-03
   -16.0500  8.802580E-03  6.631550E-01  6.101266E-03  2.662952E-03
   -15.6000  3.995151E-02  1.524394E+00  1.092636E-03  1.068550E-04
   -15.1500  7.986571E-03  1.213618E+00  6.984676E-03  1.652384E-03
   -14.7000  5.569647E-03  7.953366E-01  4.820103E-03  1.319968E-03
   -14.2500  4.631327E-03  5.672088E-01  4.536974E-03  1.101375E-03
   -13.8000  8.103791E-03  1.152754E+00  1.978016E-03  1.322024E-04
   -13.3500  5.165791E-03  7.059994E-01  5.278389E-03  1.703870E-03
   -12.9000  2.048463E-03  3.326473E-01  4.446803E-03  1.330366E-03
   -12.4500  1.614437E-03  9.658553E-02  5.211501E-03  1.456385E-03
   -12.0000  1.895420E-03  8.593417E-02  1.107578E-02  2.255000E-03
   -11.5500  2.465392E-03  1.413652E-01  1.817070E-02  3.198919E-03
   -11.1000  2.801407E-03  1.699582E-01  1.820896E-02  3.448208E-03
   -10.6500  3.831917E-03  1.862696E-01  2.289947E-02  3.894336E-03
   -10.2000  7.789801E-03  2.057410E-01  6.042011E-03  3.149167E-04
    -9.7500  4.689793E-03  1.990165E-01  1.709990E-02  3.767721E-03
    -9.3000  4.155953E-03  3.153461E-01  1.808917E-02  8.048340E-03
    -8.8500  3.907685E-03  1.803902E-01  1.164364E-02  6.061854E-03
    -8.4000  8.786819E-03  1.274283E-01  9.248582E-03  5.960568E-04
    -7.9500  5.605899E-03  6.135126E-02  5.445188E-03  1.527007E-03
    -7.5000  9.958200E-03  4.717533E-02  6.492767E-03  1.641537E-03
    -7.0500  1.993815E-02  5.039704E-02  9.751609E-03  2.187266E-03
    -6.6000  3.223726E-02  6.786696E-02  1.558621E-02  3.113239E-03
    -6.1500  4.408189E-02  7.053805E-02  2.137203E-02  4.324498E-03
    -5.7000  6.004550E-02  8.247222E-02  2.507551E-02  4.923948E-03
    -5.2500  5.698029E-02  1.028884E-01  2.366259E-02  3.807560E-03
    -4.8000  1.225497E-02  9.251846E-02  1.768971E-02  1.317550E-03
    -4.3500  3.447167E-02  1.435062E-01  2.414714E-02  3.965632E-03
    -3.9000  2.099647E-02  1.557831E-01  2.491736E-02  4.824575E-03
    -3.4500  1.535338E-02  1.710064E-01  2.389724E-02  5.571513E-03
    -3.0000  1.200291E-02  8.497045E-02  2.239758E-02  2.052451E-03
    -2.5500  1.186438E-02  1.315713E-01  2.034678E-02  3.904293E-03
    -2.1000  1.443474E-02  1.375446E-01  2.235155E-02  3.891752E-03
    -1.6500  1.370610E-02  1.055489E-01  1.703660E-02  3.382885E-03
    -1.2000  1.107812E-02  7.265469E-02  1.598239E-02  2.631774E-03
    -0.7500  1.158127E-02  6.826819E-02  2.118784E-02  2.717875E-03
    -0.3000  1.169370E-02  8.171328E-02  2.789217E-02  3.087768E-03
     0.1500  1.042137E-02  1.031844E-01  3.178464E-02  3.428702E-03
     0.6000  1.227749E-02  6.771755E-02  3.408013E-02  3.728338E-03
     1.0500  7.136204E-03  1.209553E-01  3.282107E-02  4.010929E-03
     1.5000  6.456194E-03  9.177266E-02  2.855419E-02  3.871245E-03
     1.9500  6.650310E-03  6.715686E-02  2.727711E-02  3.620099E-03
     2.4000  1.245439E-02  6.236088E-02  4.060404E-02  4.817378E-03
     2.8500  1.181926E-02  6.998740E-02  3.821983E-02  4.638707E-03
     3.3000  1.353159E-02  7.432466E-02  4.348757E-02  5.315974E-03
     3.7500  1.094970E-02  6.338266E-02  4.259921E-02  5.226787E-03
     4.2000  8.539512E-03  5.404681E-02  4.187021E-02  5.080280E-03
     4.6500  7.491291E-03  5.067280E-02  4.273876E-02  5.130281E-03
     5.1000  7.448120E-03  5.100290E-02  4.530333E-02  5.274590E-03
     5.5500  7.969423E-03  5.297200E-02  4.920145E-02  5.473964E-03
     6.0000  1.287228E-02  5.549613E-02  5.461162E-02  7.533279E-03
     6.4500  8.826883E-03  5.349073E-02  5.815186E-02  6.333827E-03
     6.9000  8.994173E-03  4.998870E-02  6.096867E-02  6.902124E-03
     7.3500  9.166814E-03  4.678893E-02  6.309252E-02  7.487539E-03
     7.8000  1.310583E-02  5.340259E-02  6.191024E-02  9.168299E-03
     8.2500  8.328303E-03  4.316146E-02  6.315751E-02  8.414165E-03
     8.7000  8.160300E-03  4.231490E-02  6.153440E-02  8.844346E-03
     9.1500  8.371672E-03  4.172139E-02  6.026940E-02  9.214498E-03
     9.6000  8.722870E-03  4.130171E-02  6.022244E-02  9.606258E-03
    10.0500  9.097574E-03  4.124963E-02  6.185502E-02  1.011777E-02
    10.5000  9.456440E-03  4.141859E-02  6.539217E-02  1.075989E-02
    10.9500  9.789834E-03  4.183102E-02  7.057551E-02  1.147572E-02
    11.4000  1.360322E-02  5.099039E-02  7.659895E-02  1.299815E-02
    11.8500  1.040931E-02  4.377432E-02  8.386581E-02  1.309403E-02
    12.3000  1.072057E-02  4.446507E-02  9.086086E-02  1.387069E-02
    12.7500  1.129860E-02  4.417838E-02  9.575853E-02  1.440969E-02
    13.2000  1.213708E-02  4.298536E-02  9.671537E-02  1.466143E-02
    13.6500  1.300728E-02  4.172178E-02  9.487625E-02  1.478668E-02
    14.1000  1.377886E-02  4.160941E-02  9.315196E-02  1.501854E-02
    14.5500  1.438367E-02  4.371071E-02  9.284499E-02  1.542388E-02
    15.0000  1.453301E-02  4.693065E-02  9.252649E-02  1.588510E-02
