#  Fermi level (eV):  -7.854
#  Charge transfer :  -0.152
#    Electron counts for each orbital momentum:
#       0      1.781
#       1      4.257
#       2      0.114
#       3      0.000
#  Number of atoms in cluster: 106
#  Lorentzian broadening with HWHH     0.1000 eV
# -----------------------------------------------------------------------
#      e        sDOS           pDOS          dDOS          fDOS    @#
   -30.0000  1.437738E-02  6.986797E-04  1.148744E-04  5.553638E-05
   -29.5500  2.773239E-02  7.751554E-04  1.327205E-04  5.899856E-05
   -29.1000  1.079041E-01  9.680486E-04  2.184954E-04  6.948683E-05
   -28.6500  3.229545E-01  3.294544E-03  5.778458E-04  1.398880E-04
   -28.2000  5.726283E-01  2.935923E-03  8.400186E-04  3.168968E-04
   -27.7500  1.201009E+00  4.124794E-03  1.658467E-03  5.128740E-04
   -27.3000  7.922889E-01  2.129003E-03  4.981978E-04  1.859143E-04
   -26.8500  8.260971E-02  1.255112E-03  1.844682E-04  7.876745E-05
   -26.4000  3.224574E-02  1.307224E-03  1.639075E-04  7.020705E-05
   -25.9500  1.973284E-02  1.599868E-03  1.886235E-04  7.325361E-05
   -25.5000  2.985170E-02  3.844945E-03  4.933338E-04  1.227647E-04
   -25.0500  8.777835E-02  1.077152E-02  1.315829E-03  3.138918E-04
   -24.6000  3.348099E-02  6.217516E-03  7.348076E-04  1.540183E-04
   -24.1500  7.710248E-03  2.161102E-03  2.058665E-04  7.712276E-05
   -23.7000  4.640275E-03  1.983548E-03  1.658930E-04  7.144346E-05
   -23.2500  3.372964E-03  2.076524E-03  1.572784E-04  7.096055E-05
   -22.8000  2.642426E-03  2.262219E-03  1.564570E-04  7.191981E-05
   -22.3500  2.157936E-03  2.516113E-03  1.588969E-04  7.369102E-05
   -21.9000  1.811667E-03  2.841139E-03  1.632618E-04  7.604299E-05
   -21.4500  1.552596E-03  3.253756E-03  1.690571E-04  7.899258E-05
   -21.0000  1.353479E-03  3.785242E-03  1.762817E-04  8.275449E-05
   -20.5500  1.198168E-03  4.489946E-03  1.852601E-04  8.786114E-05
   -20.1000  1.077028E-03  5.443492E-03  1.966916E-04  9.432797E-05
   -19.6500  9.777037E-04  6.734489E-03  2.095220E-04  1.012538E-04
   -19.2000  8.860488E-04  8.834047E-03  2.171580E-04  1.208211E-04
   -18.7500  1.019122E-03  1.712727E-02  3.761592E-04  4.427301E-04
   -18.3000  1.897435E-03  1.227135E-02  5.425438E-04  9.053942E-05
   -17.8500  9.620444E-04  3.969315E-02  4.633414E-04  5.417434E-04
   -17.4000  1.498474E-03  1.125069E-01  6.663798E-04  8.054940E-04
   -16.9500  4.439203E-03  7.919268E-01  2.839545E-03  5.406184E-03
   -16.5000  7.623787E-03  5.978293E-01  3.330306E-03  3.869803E-03
   -16.0500  5.815863E-03  3.646699E-01  4.346325E-03  1.737164E-03
   -15.6000  2.486785E-02  4.758384E-01  1.199228E-02  2.587531E-03
   -15.1500  8.085850E-03  7.946816E-01  9.867666E-03  3.837040E-03
   -14.7000  5.562014E-03  7.154496E-01  8.531966E-03  1.972045E-03
   -14.2500  5.536475E-03  7.767370E-01  4.178496E-03  1.512290E-03
   -13.8000  8.987197E-03  8.177257E-01  4.080629E-03  1.389502E-03
   -13.3500  5.125231E-03  5.817525E-01  6.207279E-03  1.769866E-03
   -12.9000  4.153048E-03  6.738450E-01  5.077666E-03  2.327000E-03
   -12.4500  7.202604E-03  3.929361E-01  5.258516E-03  1.581534E-03
   -12.0000  2.735477E-03  3.863092E-01  8.217473E-03  1.347548E-03
   -11.5500  1.962297E-03  1.429524E-01  1.324358E-02  1.755235E-03
   -11.1000  2.097871E-03  1.071778E-01  2.659120E-02  2.728748E-03
   -10.6500  3.023775E-03  1.730615E-01  1.816627E-02  2.973906E-03
   -10.2000  3.984990E-03  1.191948E-01  1.467629E-02  2.489772E-03
    -9.7500  1.105597E-02  1.354969E-01  2.579835E-02  3.407295E-03
    -9.3000  9.434776E-03  1.414559E-01  2.691145E-02  3.691410E-03
    -8.8500  7.959041E-03  1.976145E-01  1.749824E-02  5.185145E-03
    -8.4000  7.113405E-03  4.464935E-01  1.779876E-02  1.198325E-02
    -7.9500  7.162262E-03  3.559679E-01  1.857750E-02  1.210188E-02
    -7.5000  7.485321E-03  1.933298E-01  8.513841E-03  8.402161E-03
    -7.0500  9.646430E-03  1.022767E-01  7.037305E-03  3.128655E-03
    -6.6000  1.460367E-02  7.005564E-02  8.756922E-03  2.082296E-03
    -6.1500  1.953946E-02  6.077205E-02  1.127216E-02  2.345362E-03
    -5.7000  2.178099E-02  5.760730E-02  1.392859E-02  2.595447E-03
    -5.2500  2.574297E-02  5.509751E-02  1.950531E-02  2.594841E-03
    -4.8000  3.191869E-02  6.266969E-02  2.638874E-02  2.852167E-03
    -4.3500  3.734457E-02  8.373476E-02  2.540852E-02  3.585749E-03
    -3.9000  3.819931E-02  1.065662E-01  2.380163E-02  4.024344E-03
    -3.4500  4.337550E-02  1.307547E-01  2.581290E-02  4.210783E-03
    -3.0000  3.409648E-02  1.382583E-01  3.130028E-02  3.438377E-03
    -2.5500  2.029968E-02  1.322150E-01  2.848648E-02  3.038583E-03
    -2.1000  1.456653E-02  1.193484E-01  2.189411E-02  3.256687E-03
    -1.6500  1.521251E-02  1.234346E-01  1.939105E-02  4.125915E-03
    -1.2000  1.412822E-02  1.488095E-01  1.806501E-02  6.367866E-03
    -0.7500  1.123057E-02  1.374514E-01  1.758125E-02  7.005271E-03
    -0.3000  1.144894E-02  8.552262E-02  2.006711E-02  3.835400E-03
     0.1500  1.305062E-02  8.027330E-02  2.627083E-02  3.376908E-03
     0.6000  1.419486E-02  8.970448E-02  2.735399E-02  3.446648E-03
     1.0500  1.403078E-02  9.664401E-02  2.323427E-02  3.549414E-03
     1.5000  1.301048E-02  8.929174E-02  2.129389E-02  3.485947E-03
     1.9500  1.289335E-02  7.935021E-02  2.183959E-02  3.398542E-03
     2.4000  1.279071E-02  7.173743E-02  2.415879E-02  3.363312E-03
     2.8500  1.242217E-02  7.683212E-02  2.813623E-02  3.535891E-03
     3.3000  1.259303E-02  8.904204E-02  3.298001E-02  3.925594E-03
     3.7500  1.285120E-02  8.584764E-02  3.720177E-02  4.414915E-03
     4.2000  1.235185E-02  7.919752E-02  4.040424E-02  4.999616E-03
     4.6500  1.163481E-02  7.004349E-02  4.085683E-02  5.322902E-03
     5.1000  1.084052E-02  6.054533E-02  3.951114E-02  5.329238E-03
     5.5500  9.938654E-03  5.356720E-02  3.863244E-02  5.234001E-03
     6.0000  9.238264E-03  4.990956E-02  3.891573E-02  5.219660E-03
     6.4500  9.095758E-03  4.905645E-02  4.079276E-02  5.323874E-03
     6.9000  9.414969E-03  5.026958E-02  4.425940E-02  5.559077E-03
     7.3500  9.767142E-03  5.243404E-02  4.900488E-02  5.979919E-03
     7.8000  9.929297E-03  5.401650E-02  5.432799E-02  6.599715E-03
     8.2500  9.851055E-03  5.451710E-02  5.874266E-02  7.375960E-03
     8.7000  9.532843E-03  5.419651E-02  6.143102E-02  8.259841E-03
     9.1500  9.282071E-03  5.388294E-02  6.347062E-02  9.135343E-03
     9.6000  9.270236E-03  5.354045E-02  6.487631E-02  9.819742E-03
    10.0500  9.412097E-03  5.325130E-02  6.520679E-02  1.022927E-02
    10.5000  9.508285E-03  5.364423E-02  6.502561E-02  1.035698E-02
    10.9500  9.533856E-03  5.576389E-02  6.578967E-02  1.037298E-02
    11.4000  9.610008E-03  5.890156E-02  6.812307E-02  1.044298E-02
    11.8500  9.622825E-03  5.780679E-02  7.026817E-02  1.060625E-02
    12.3000  9.578597E-03  5.306166E-02  7.223133E-02  1.098120E-02
    12.7500  9.634558E-03  4.915103E-02  7.562861E-02  1.172103E-02
    13.2000  9.797078E-03  4.700022E-02  8.105088E-02  1.284664E-02
    13.6500  1.007490E-02  4.583545E-02  8.772234E-02  1.403890E-02
    14.1000  1.029522E-02  4.453863E-02  9.271635E-02  1.476707E-02
    14.5500  1.031481E-02  4.258372E-02  9.357358E-02  1.494736E-02
    15.0000  1.024217E-02  4.034126E-02  9.121113E-02  1.494258E-02
