#  Fermi level (eV):  -6.852
#  Charge transfer :   0.420
#    Electron counts for each orbital momentum:
#       0      0.613
#       1      0.781
#       2      7.187
#       3      0.000
#  Number of atoms in cluster: 142
#  Lorentzian broadening with HWHH     0.1000 eV
# -----------------------------------------------------------------------
#      e        sDOS           pDOS          dDOS          fDOS    @#
   -30.0000  2.102045E-03  1.587054E-03  2.357195E-03  1.016806E-03
   -29.5500  5.195335E-03  2.427931E-03  3.355843E-03  1.295417E-03
   -29.1000  4.855903E-02  5.543288E-03  7.044591E-03  2.826308E-03
   -28.6500  3.870036E-02  3.340453E-02  2.324946E-02  8.382584E-03
   -28.2000  5.562712E-02  5.850662E-02  5.873829E-02  1.601109E-02
   -27.7500  5.042199E-02  1.335880E-01  2.076835E-01  4.738528E-02
   -27.3000  1.200792E-02  8.914823E-02  1.304981E-01  3.823632E-02
   -26.8500  2.620144E-03  1.519950E-02  1.468586E-02  8.652748E-03
   -26.4000  1.426759E-03  4.194739E-03  5.969962E-03  2.233276E-03
   -25.9500  1.050095E-03  2.466640E-03  4.148343E-03  1.433413E-03
   -25.5000  1.030690E-03  2.132246E-03  4.001712E-03  1.286557E-03
   -25.0500  3.139295E-03  7.280392E-03  1.234779E-02  2.788482E-03
   -24.6000  9.051543E-04  3.909924E-03  1.429024E-02  9.684247E-03
   -24.1500  2.285936E-03  3.302322E-03  6.886956E-03  2.586129E-03
   -23.7000  7.954357E-04  1.291622E-03  3.414895E-03  1.031306E-03
   -23.2500  6.103892E-04  9.906353E-04  3.049590E-03  8.392204E-04
   -22.8000  5.655868E-04  8.870725E-04  3.060397E-03  7.758255E-04
   -22.3500  5.670836E-04  8.473914E-04  3.212642E-03  7.491156E-04
   -21.9000  5.965035E-04  8.422850E-04  3.469540E-03  7.437582E-04
   -21.4500  6.497740E-04  8.604582E-04  3.816985E-03  7.471827E-04
   -21.0000 -4.233747E-01  7.441550E-02 -1.656101E-01 -9.107295E-02
   -20.5500  8.470792E-04  9.628079E-04  4.862357E-03  7.737935E-04
   -20.1000  1.017785E-03  1.055554E-03  5.649839E-03  7.959200E-04
   -19.6500  1.284221E-03  1.205678E-03  6.864076E-03  8.718814E-04
   -19.2000  1.853035E-02  1.301328E-02  8.248932E-03  5.885968E-04
   -18.7500  2.599545E-03  1.978303E-03  1.378013E-02  1.758419E-03
   -18.3000  5.058750E-03  4.034192E-03  3.636623E-02  6.581975E-03
   -17.8500  7.456400E-03  5.910183E-03  2.949570E-02  2.086137E-03
   -17.4000  4.890000E-02  8.965097E-03  1.062883E-01  2.284814E-03
   -16.9500  1.441269E-01  7.544190E-02  4.668407E-01  1.368534E-02
   -16.5000  1.065322E-01  6.261939E-02  4.942666E-01  1.802665E-02
   -16.0500  9.482546E-02  9.048159E-02  6.069097E-01  2.514782E-02
   -15.6000  3.001742E-02  7.813235E-03  8.004493E-02  6.536139E-04
   -15.1500  8.360184E-02  8.367298E-02  5.917285E-01  2.677996E-02
   -14.7000  8.252250E-02  6.223481E-02  5.582779E-01  2.659626E-02
   -14.2500  4.079168E-02  8.520225E-02  4.567808E-01  3.350453E-02
   -13.8000  2.729051E-01  2.115866E-02  1.560943E-01  1.021283E-03
   -13.3500  3.634245E-02  1.306491E-01  4.093729E-01  7.357085E-02
   -12.9000  3.187099E-02  1.654787E-01  2.828138E-01  1.122500E-01
   -12.4500  1.000193E-02  9.789502E-02  1.699695E-01  9.152445E-02
   -12.0000  5.279154E-03  2.310936E-02  1.013286E-01  2.593264E-02
   -11.5500  5.213593E-03  1.246047E-02  1.128630E-01  1.071254E-02
   -11.1000  9.767004E-03  1.458499E-02  2.540258E-01  9.618560E-03
   -10.6500  2.562376E-02  2.224549E-02  7.689834E-01  1.463900E-02
   -10.2000  8.815893E-02  9.578933E-02  9.023596E-01  3.476202E-03
    -9.7500  3.315597E-02  3.407487E-02  1.793810E+00  2.686435E-02
    -9.3000  2.220223E-02  3.310063E-02  1.864357E+00  2.718040E-02
    -8.8500  1.434549E-02  2.226270E-02  1.349215E+00  2.256861E-02
    -8.4000  2.702597E-02  1.121936E-01  3.257760E-01  4.505930E-03
    -7.9500  1.139429E-02  6.309835E-03  9.088344E-01  1.152425E-02
    -7.5000  4.428439E-03  4.552937E-03  2.125999E-01  4.970344E-03
    -7.0500  4.434271E-03  5.189659E-03  1.681907E-01  4.615219E-03
    -6.6000  7.410788E-03  8.750323E-03  3.700982E-01  6.053725E-03
    -6.1500  2.352562E-02  2.320136E-02  1.183974E+00  1.281885E-02
    -5.7000  2.806806E-02  3.520723E-02  8.803526E-01  1.962348E-02
    -5.2500  2.666057E-02  4.857195E-02  1.118536E+00  2.491067E-02
    -4.8000  3.143100E-02  1.205510E-01  1.547839E-01  1.608642E-02
    -4.3500  1.405716E-02  3.070319E-02  4.281433E-01  1.426049E-02
    -3.9000  1.481951E-02  2.536973E-02  2.572559E-01  1.613193E-02
    -3.4500  2.024127E-02  2.235573E-02  1.602595E-01  1.597402E-02
    -3.0000  4.705662E-02  1.086406E-01  1.481445E-01  2.780388E-02
    -2.5500  4.174773E-02  5.523248E-02  1.389019E-01  3.364159E-02
    -2.1000  4.841090E-02  7.112323E-02  1.061812E-01  3.268318E-02
    -1.6500  4.994130E-02  5.558777E-02  9.081874E-02  2.829723E-02
    -1.2000  5.857797E-02  5.125154E-02  8.156744E-02  2.906237E-02
    -0.7500  6.736967E-02  5.195496E-02  7.372160E-02  3.271177E-02
    -0.3000  8.217180E-02  5.567816E-02  6.510520E-02  3.788366E-02
     0.1500  9.874227E-02  6.140174E-02  6.180351E-02  4.339608E-02
     0.6000  3.994627E-02  1.146766E-01  1.122655E-01  5.277699E-02
     1.0500  1.871282E-01  6.499846E-02  8.984044E-02  5.362320E-02
     1.5000  1.912910E-01  6.607738E-02  8.153310E-02  5.176918E-02
     1.9500  1.559237E-01  6.285457E-02  6.495443E-02  4.628703E-02
     2.4000  3.697090E-02  1.155296E-01  1.043908E-01  6.924210E-02
     2.8500  1.143140E-01  6.856391E-02  5.773621E-02  5.389580E-02
     3.3000  8.124952E-02  7.392331E-02  5.262054E-02  6.025374E-02
     3.7500  6.226757E-02  8.208801E-02  5.082548E-02  7.168712E-02
     4.2000  6.560199E-02  9.103459E-02  5.431642E-02  8.379779E-02
     4.6500  7.632387E-02  1.039361E-01  5.954613E-02  9.081316E-02
     5.1000  6.619847E-02  1.170422E-01  6.286483E-02  9.249825E-02
     5.5500  5.231856E-02  1.353754E-01  6.811258E-02  9.261525E-02
     6.0000  3.196726E-02  1.140853E-01  9.813858E-02  1.104067E-01
     6.4500  3.132123E-02  1.571965E-01  5.885191E-02  8.883108E-02
     6.9000  2.313813E-02  1.650668E-01  5.360959E-02  9.101759E-02
     7.3500  1.873565E-02  1.783298E-01  5.372941E-02  9.865890E-02
     7.8000  2.987050E-02  1.121905E-01  9.793455E-02  1.348598E-01
     8.2500  1.613844E-02  2.153502E-01  6.646714E-02  1.107621E-01
     8.7000  1.549865E-02  2.247771E-01  7.248232E-02  1.079021E-01
     9.1500  1.470554E-02  2.103804E-01  7.399752E-02  9.992808E-02
     9.6000  1.411356E-02  1.859016E-01  7.184626E-02  9.210241E-02
    10.0500  1.358228E-02  1.679539E-01  6.809933E-02  8.824892E-02
    10.5000  1.273372E-02  1.568708E-01  6.567249E-02  8.902091E-02
    10.9500  1.193157E-02  1.482681E-01  6.645449E-02  9.465888E-02
    11.4000  2.634944E-02  1.068791E-01  1.008694E-01  1.895503E-01
    11.8500  1.191605E-02  1.389605E-01  7.242187E-02  1.229325E-01
    12.3000  1.252162E-02  1.429576E-01  7.592669E-02  1.439342E-01
    12.7500  1.338833E-02  1.473329E-01  8.210680E-02  1.709142E-01
    13.2000  1.402917E-02  1.387989E-01  8.884125E-02  1.897599E-01
    13.6500  1.433304E-02  1.264182E-01  8.889944E-02  1.912607E-01
    14.1000  1.458139E-02  1.197380E-01  8.641186E-02  1.906230E-01
    14.5500  1.463231E-02  1.175900E-01  8.570558E-02  1.962204E-01
    15.0000  1.447391E-02  1.175346E-01  8.716805E-02  2.068699E-01
