#  Fermi level (eV):  -5.862
#  Charge transfer :  -0.172
#    Electron counts for each orbital momentum:
#       0      1.775
#       1      4.267
#       2      0.131
#       3      0.000
#  Number of atoms in cluster: 119
#  Lorentzian broadening with HWHH     0.1000 eV
# -----------------------------------------------------------------------
#      e        sDOS           pDOS          dDOS          fDOS    @#
   -30.0000  6.632699E-03  6.045216E-04  9.693927E-05  5.176852E-05
   -29.5500  9.614952E-03  6.438633E-04  1.003626E-04  5.322064E-05
   -29.1000  1.569473E-02  6.942088E-04  1.053251E-04  5.532649E-05
   -28.6500  3.510894E-02  7.778538E-04  1.153735E-04  5.908228E-05
   -28.2000  3.155139E-01  1.228788E-03  1.936511E-04  7.388389E-05
   -27.7500  2.654906E-01  1.909575E-03  2.655754E-04  1.094120E-04
   -27.3000  6.134330E-01  2.575679E-03  4.487682E-04  2.909927E-04
   -26.8500  9.613077E-01  3.291302E-03  9.747533E-04  6.045277E-04
   -26.4000  6.341087E-01  3.470306E-03  6.771592E-04  4.713634E-04
   -25.9500  9.196730E-02  1.283080E-03  1.803978E-04  1.076898E-04
   -25.5000  3.205488E-02  1.171950E-03  1.382337E-04  7.261393E-05
   -25.0500  1.695509E-02  1.216096E-03  1.303083E-04  6.566824E-05
   -24.6000  1.219320E-02  2.323834E-03  8.399809E-04  9.047122E-04
   -24.1500  7.319665E-03  1.400421E-03  1.302076E-04  6.303364E-05
   -23.7000  5.370321E-03  1.524162E-03  1.326092E-04  6.326501E-05
   -23.2500  4.119348E-03  1.670382E-03  1.358260E-04  6.392606E-05
   -22.8000  3.267741E-03  1.843212E-03  1.396889E-04  6.487688E-05
   -22.3500  2.661750E-03  2.048815E-03  1.441850E-04  6.608252E-05
   -21.9000  2.215394E-03  2.295933E-03  1.493241E-04  6.751736E-05
   -21.4500  1.877308E-03  2.596561E-03  1.551617E-04  6.917538E-05
   -21.0000  6.586909E-03  7.282674E-02  7.254271E-02 -5.816220E-02
   -20.5500  1.411704E-03  3.438807E-03  1.697609E-04  7.347586E-05
   -20.1000  1.249430E-03  4.047795E-03  1.790799E-04  7.630199E-05
   -19.6500  1.118403E-03  4.854228E-03  1.899436E-04  7.948719E-05
   -19.2000  9.848966E-03 -6.806710E-04  8.690505E-04 -3.931894E-06
   -18.7500  9.361089E-04  7.630851E-03  2.217920E-04  8.944008E-05
   -18.3000  8.671621E-04  1.010743E-02  2.403428E-04  9.238306E-05
   -17.8500  9.599152E-04  1.660884E-02  3.275683E-04  1.713772E-04
   -17.4000 -6.368507E-04 -1.860625E-02 -9.576405E-04 -4.067321E-04
   -16.9500  1.231881E-03  6.815665E-02  1.165667E-04  5.418910E-06
   -16.5000  7.110002E-03  5.907656E-01  3.634544E-03  1.205458E-03
   -16.0500  6.581674E-03  4.626900E-01  4.087702E-03  1.744402E-03
   -15.6000  3.785956E-02  1.361636E-01  3.255774E-04  7.428810E-05
   -15.1500  6.209295E-03  6.435216E-01  7.402862E-03  2.361914E-03
   -14.7000  4.835308E-03  9.151014E-01  8.937288E-03  2.672998E-03
   -14.2500  7.521940E-03  5.843798E-01  7.233376E-03  1.797326E-03
   -13.8000  1.437742E-02  1.406090E+00  6.375500E-04  8.010628E-05
   -13.3500  9.198625E-03  4.347656E-01  7.836577E-03  1.727774E-03
   -12.9000  1.697324E-02  8.044695E-01  9.089660E-03  2.235627E-03
   -12.4500  8.376772E-03  8.232016E-01  7.962647E-03  1.699078E-03
   -12.0000  5.538760E-03  9.019269E-01  4.091946E-03  9.498488E-04
   -11.5500  3.045908E-03  4.575724E-01  3.051495E-03  6.737397E-04
   -11.1000  2.267150E-03  1.935639E-01  3.348358E-03  6.312884E-04
   -10.6500  2.004026E-03  9.863742E-02  4.241278E-03  7.630291E-04
   -10.2000  5.078812E-03  3.547587E-01  3.446097E-03  2.084263E-04
    -9.7500  3.558224E-03  8.092717E-02  1.621203E-02  2.554681E-03
    -9.3000  5.859320E-03  1.215723E-01  2.873500E-02  4.343142E-03
    -8.8500  5.488973E-03  1.366840E-01  3.720637E-02  7.403828E-03
    -8.4000  6.665201E-03  2.099613E-01  5.941303E-03  3.370915E-04
    -7.9500  6.326554E-03  1.711826E-01  3.033697E-02  8.682493E-03
    -7.5000  6.346090E-03  2.787171E-01  2.300750E-02  7.073189E-03
    -7.0500  9.146516E-03  2.529478E-01  1.324833E-02  6.023677E-03
    -6.6000  1.150407E-02  1.049889E-01  5.229695E-03  2.038988E-03
    -6.1500  1.213261E-02  6.554114E-02  4.748434E-03  1.444627E-03
    -5.7000  1.517502E-02  4.790051E-02  5.830868E-03  1.793198E-03
    -5.2500  2.632139E-02  4.646148E-02  8.669549E-03  2.989663E-03
    -4.8000  8.082289E-03  8.135113E-02  1.084552E-02  8.803799E-04
    -4.3500  7.549209E-02  1.104876E-01  2.631049E-02  9.407653E-03
    -3.9000  5.539411E-02  1.378901E-01  2.555673E-02  6.902269E-03
    -3.4500  2.937319E-02  2.174142E-01  2.973965E-02  5.640107E-03
    -3.0000  1.151489E-02  9.789614E-02  1.575207E-02  1.288433E-03
    -2.5500  1.864781E-02  1.799623E-01  2.103483E-02  3.584425E-03
    -2.1000  1.890200E-02  1.505655E-01  1.585361E-02  2.548664E-03
    -1.6500  1.871573E-02  1.237047E-01  1.369672E-02  1.856160E-03
    -1.2000  1.907773E-02  1.143316E-01  1.393612E-02  1.753279E-03
    -0.7500  1.746072E-02  1.043039E-01  1.418632E-02  1.790854E-03
    -0.3000  1.555039E-02  9.296138E-02  1.462682E-02  1.755332E-03
     0.1500  1.524780E-02  9.061931E-02  1.633321E-02  1.817180E-03
     0.6000  1.164693E-02  7.371574E-02  2.540925E-02  2.502308E-03
     1.0500  1.785257E-02  1.036974E-01  2.190675E-02  2.405691E-03
     1.5000  1.859289E-02  1.085926E-01  2.356564E-02  2.842079E-03
     1.9500  1.700031E-02  1.120712E-01  2.531254E-02  3.165449E-03
     2.4000  1.175569E-02  6.637544E-02  3.097605E-02  3.320367E-03
     2.8500  1.146265E-02  1.211010E-01  3.199350E-02  3.472009E-03
     3.3000  9.669964E-03  1.091546E-01  3.596547E-02  3.721305E-03
     3.7500  8.648798E-03  9.735723E-02  3.837772E-02  4.070759E-03
     4.2000  7.909535E-03  9.646241E-02  4.054257E-02  4.543253E-03
     4.6500  7.171724E-03  9.295239E-02  4.235977E-02  5.020375E-03
     5.1000  6.429409E-03  8.134112E-02  4.365357E-02  5.368179E-03
     5.5500  5.795025E-03  7.122100E-02  4.428652E-02  5.613309E-03
     6.0000  1.205139E-02  5.687969E-02  4.329766E-02  5.421250E-03
     6.4500  5.037638E-03  5.147218E-02  4.478984E-02  5.696197E-03
     6.9000  4.933789E-03  4.450856E-02  4.448270E-02  5.642962E-03
     7.3500  4.981278E-03  4.057411E-02  4.389979E-02  5.626336E-03
     7.8000  1.223243E-02  5.386938E-02  4.991320E-02  6.715789E-03
     8.2500  5.716104E-03  3.917581E-02  4.395201E-02  6.080664E-03
     8.7000  6.443448E-03  4.074595E-02  4.543718E-02  6.630318E-03
     9.1500  7.184560E-03  4.326586E-02  4.796819E-02  7.246857E-03
     9.6000  7.634021E-03  4.500898E-02  5.132264E-02  7.704058E-03
    10.0500  7.739615E-03  4.499608E-02  5.537211E-02  7.991546E-03
    10.5000  7.706698E-03  4.663723E-02  6.088329E-02  8.375043E-03
    10.9500  7.601735E-03  5.139872E-02  6.789096E-02  9.016829E-03
    11.4000  1.264399E-02  5.009147E-02  6.365882E-02  9.809402E-03
    11.8500  7.105885E-03  4.379076E-02  6.403509E-02  9.777503E-03
    12.3000  7.142307E-03  3.850351E-02  6.122627E-02  9.922123E-03
    12.7500  7.507676E-03  3.517938E-02  6.112563E-02  1.021831E-02
    13.2000  8.244372E-03  3.341069E-02  6.292740E-02  1.070946E-02
    13.6500  9.068627E-03  3.262851E-02  6.525269E-02  1.136834E-02
    14.1000  9.406216E-03  3.247885E-02  6.737733E-02  1.219388E-02
    14.5500  9.279445E-03  3.283574E-02  6.958800E-02  1.305356E-02
    15.0000  9.194946E-03  3.299496E-02  7.143392E-02  1.374045E-02
