#  Fermi level (eV):  -8.958
#  Charge transfer :  -0.254
#    Electron counts for each orbital momentum:
#       0      1.840
#       1      4.325
#       2      0.089
#       3      0.000
#  Number of atoms in cluster: 110
#  Lorentzian broadening with HWHH     0.1000 eV
# -----------------------------------------------------------------------
#      e        sDOS           pDOS          dDOS          fDOS    @#
   -30.0000  1.930529E-02  7.405724E-04  1.165825E-04  6.060320E-05
   -29.5500  4.046109E-02  8.272070E-04  1.271543E-04  6.438206E-05
   -29.1000  2.247543E-01  1.283367E-03  2.134944E-04  9.090199E-05
   -28.6500  9.637956E-01  1.909764E-03  3.539918E-04  1.365087E-04
   -28.2000  1.083342E+00  2.781884E-03  4.237107E-04  1.849740E-04
   -27.7500  6.629431E-01  1.996899E-03  4.129211E-04  1.376518E-04
   -27.3000  7.750314E-02  1.316679E-03  1.789353E-04  7.676202E-05
   -26.8500  3.165227E-02  1.491661E-03  1.869457E-04  7.701751E-05
   -26.4000  1.969714E-02  2.010968E-03  2.419080E-04  8.758393E-05
   -25.9500  1.938422E-02  4.216205E-03  4.830499E-04  1.346303E-04
   -25.5000  6.834794E-02  3.994591E-02  4.193495E-03  7.937503E-04
   -25.0500  3.578863E-01  2.643958E-02  4.703141E-03  1.175532E-03
   -24.6000  5.694927E-03  1.822781E-03  8.122971E-04  1.322014E-03
   -24.1500  1.027721E-02  2.434907E-03  2.666828E-04  9.746177E-05
   -23.7000  5.726924E-03  2.191308E-03  2.053924E-04  8.372926E-05
   -23.2500  3.906808E-03  2.218859E-03  1.849018E-04  7.957720E-05
   -22.8000  2.935307E-03  2.359643E-03  1.774735E-04  7.843140E-05
   -22.3500  2.331234E-03  2.576798E-03  1.757686E-04  7.862042E-05
   -21.9000  1.919687E-03  2.865512E-03  1.771804E-04  7.957140E-05
   -21.4500  1.622396E-03  3.235360E-03  1.806795E-04  8.109051E-05
   -21.0000 -5.965312E-03  6.846381E-02  7.341655E-03 -5.472374E-04
   -20.5500  1.226165E-03  4.314948E-03  1.924950E-04  8.571002E-05
   -20.1000  1.089613E-03  5.105437E-03  2.004369E-04  8.864240E-05
   -19.6500  9.820394E-04  6.183019E-03  2.105749E-04  9.274353E-05
   -19.2000  3.709383E-03 -6.397639E-03  7.323422E-05  7.053177E-05
   -18.7500  8.548099E-04  1.041692E-02  2.529747E-04  1.228057E-04
   -18.3000 -6.395246E-04 -1.763865E-02 -8.826946E-04 -4.013549E-04
   -17.8500  7.085886E-04  1.467856E-02  4.252898E-05  7.525273E-07
   -17.4000  1.368347E-03  4.667785E-02  4.430944E-04  2.394097E-04
   -16.9500  1.858434E-03  9.948447E-02  8.549300E-04  4.519753E-04
   -16.5000  1.942381E-03  3.707445E-01  1.582541E-03  9.466174E-04
   -16.0500  6.436978E-03  1.054326E+00  3.329368E-03  2.761254E-03
   -15.6000  3.347040E-02  1.509856E+00  8.089904E-04  9.584141E-05
   -15.1500  2.823763E-03  6.582209E-01  6.120622E-03  2.241153E-03
   -14.7000  4.589972E-03  8.981115E-01  7.427586E-03  2.198355E-03
   -14.2500  3.805889E-03  5.893626E-01  5.428421E-03  1.413126E-03
   -13.8000  7.891104E-03  8.390940E-01  1.298838E-03  1.124349E-04
   -13.3500  5.879752E-03  1.004995E+00  5.053477E-03  1.088728E-03
   -12.9000  3.498238E-03  7.314756E-01  3.804130E-03  6.862185E-04
   -12.4500  5.812499E-03  1.825662E-01  6.506929E-03  6.517271E-04
   -12.0000  7.033722E-03  1.603196E-01  1.378130E-02  1.344481E-03
   -11.5500  8.533416E-03  1.620381E-01  1.690189E-02  2.483380E-03
   -11.1000  1.351657E-02  1.718379E-01  2.627050E-02  3.052032E-03
   -10.6500  1.724323E-02  2.410751E-01  2.874093E-02  3.675525E-03
   -10.2000  7.024803E-03  1.936261E-01  5.651802E-03  3.643198E-04
    -9.7500  1.465901E-02  3.526886E-01  1.306758E-02  5.992882E-03
    -9.3000  1.584447E-02  2.695562E-01  1.678670E-02  5.981460E-03
    -8.8500  1.137571E-02  2.107450E-01  9.324000E-03  6.092716E-03
    -8.4000  1.113366E-02  1.448381E-01  1.067801E-02  5.951356E-04
    -7.9500  8.492186E-03  8.448174E-02  6.225587E-03  1.696305E-03
    -7.5000  1.022287E-02  6.957661E-02  5.753677E-03  1.398112E-03
    -7.0500  1.273613E-02  6.287465E-02  6.770581E-03  1.488180E-03
    -6.6000  1.595026E-02  6.583738E-02  8.463213E-03  1.920384E-03
    -6.1500  2.480893E-02  7.895053E-02  1.082783E-02  2.467976E-03
    -5.7000  3.321653E-02  1.169327E-01  1.693038E-02  2.664214E-03
    -5.2500  3.063845E-02  1.573802E-01  2.433201E-02  2.650190E-03
    -4.8000  1.480569E-02  8.619610E-02  1.654679E-02  1.620511E-03
    -4.3500  3.987651E-02  1.402624E-01  2.645088E-02  2.919540E-03
    -3.9000  2.355312E-02  1.604159E-01  2.314154E-02  3.317170E-03
    -3.4500  1.676247E-02  1.241011E-01  1.919615E-02  3.896794E-03
    -3.0000  1.261997E-02  8.586093E-02  2.407449E-02  2.249143E-03
    -2.5500  1.482802E-02  1.061677E-01  2.036544E-02  4.907115E-03
    -2.1000  1.447296E-02  1.021271E-01  1.967067E-02  5.023807E-03
    -1.6500  1.299865E-02  8.712594E-02  1.778474E-02  3.570148E-03
    -1.2000  1.165616E-02  7.413779E-02  1.599677E-02  2.657250E-03
    -0.7500  1.145652E-02  6.854697E-02  1.691166E-02  2.393468E-03
    -0.3000  1.104714E-02  6.899171E-02  1.968805E-02  2.378166E-03
     0.1500  9.821950E-03  7.011421E-02  2.347089E-02  2.473279E-03
     0.6000  1.313947E-02  6.865147E-02  3.731793E-02  4.204694E-03
     1.0500  1.015851E-02  7.603999E-02  3.221879E-02  2.870348E-03
     1.5000  1.078206E-02  8.563635E-02  3.787905E-02  3.097119E-03
     1.9500  1.142566E-02  1.078449E-01  4.577400E-02  3.327800E-03
     2.4000  1.342913E-02  6.352377E-02  4.471841E-02  5.488662E-03
     2.8500  1.265341E-02  1.039300E-01  5.553708E-02  4.115861E-03
     3.3000  1.086267E-02  7.904927E-02  6.053547E-02  4.820722E-03
     3.7500  8.991483E-03  6.548809E-02  6.683817E-02  5.611452E-03
     4.2000  7.816203E-03  5.778377E-02  6.652656E-02  6.192310E-03
     4.6500  7.355423E-03  5.322764E-02  6.139126E-02  6.639028E-03
     5.1000  7.451706E-03  5.126211E-02  5.917128E-02  7.236282E-03
     5.5500  7.878923E-03  5.076475E-02  5.873682E-02  7.968432E-03
     6.0000  1.405138E-02  5.728833E-02  6.055019E-02  8.710985E-03
     6.4500  8.703237E-03  4.717420E-02  5.726553E-02  8.537809E-03
     6.9000  8.886998E-03  4.421584E-02  5.689507E-02  8.579196E-03
     7.3500  8.969425E-03  4.237915E-02  5.647894E-02  8.746438E-03
     7.8000  1.437553E-02  5.554883E-02  6.874393E-02  1.065774E-02
     8.2500  8.855452E-03  4.082628E-02  5.936134E-02  9.538448E-03
     8.7000  8.626640E-03  4.064104E-02  6.327924E-02  1.007515E-02
     9.1500  8.406837E-03  4.144260E-02  6.866295E-02  1.059473E-02
     9.6000  8.422483E-03  4.336551E-02  7.472214E-02  1.102640E-02
    10.0500  8.976335E-03  4.570039E-02  8.065759E-02  1.144443E-02
    10.5000  1.026005E-02  4.754571E-02  8.676893E-02  1.201263E-02
    10.9500  1.211135E-02  4.880367E-02  9.309434E-02  1.286430E-02
    11.4000  1.502866E-02  5.385412E-02  8.506176E-02  1.522329E-02
    11.8500  1.528318E-02  4.952455E-02  9.947616E-02  1.528973E-02
    12.3000  1.615507E-02  4.894530E-02  9.735341E-02  1.664560E-02
    12.7500  1.683325E-02  4.815826E-02  9.360532E-02  1.799704E-02
    13.2000  1.728499E-02  4.747939E-02  8.977908E-02  1.922843E-02
    13.6500  1.754178E-02  4.706910E-02  8.693450E-02  2.014684E-02
    14.1000  1.779829E-02  4.677531E-02  8.590227E-02  2.074930E-02
    14.5500  1.820254E-02  4.642744E-02  8.705547E-02  2.120930E-02
    15.0000  1.872957E-02  4.611560E-02  9.013297E-02  2.164085E-02
