#  Fermi level (eV):  -8.958
#  Charge transfer :  -0.237
#    Electron counts for each orbital momentum:
#       0      1.834
#       1      4.316
#       2      0.087
#       3      0.000
#  Number of atoms in cluster: 111
#  Lorentzian broadening with HWHH     0.1000 eV
# -----------------------------------------------------------------------
#      e        sDOS           pDOS          dDOS          fDOS    @#
   -30.0000  1.860345E-02  7.356552E-04  1.157367E-04  6.039243E-05
   -29.5500  3.865067E-02  8.243976E-04  1.261920E-04  6.495827E-05
   -29.1000  1.948445E-01  1.431255E-03  1.901539E-04  1.218225E-04
   -28.6500  7.127461E-01  2.206461E-03  3.127250E-04  1.214617E-04
   -28.2000  1.428750E+00  2.320426E-03  5.128427E-04  2.130210E-04
   -27.7500  9.366587E-01  2.260546E-03  4.798265E-04  1.792617E-04
   -27.3000  8.992834E-02  1.295409E-03  1.783247E-04  7.834833E-05
   -26.8500  3.468268E-02  1.442811E-03  1.814248E-04  7.588971E-05
   -26.4000  2.095913E-02  1.917251E-03  2.308853E-04  8.439556E-05
   -25.9500  2.077518E-02  4.020616E-03  4.591325E-04  1.244491E-04
   -25.5000  1.031273E-01  3.800574E-02  4.619558E-03  8.147902E-04
   -25.0500  2.784752E-01  2.487034E-02  3.855334E-03  9.636158E-04
   -24.6000  2.826124E-02  3.724242E-03  4.931953E-04  1.476613E-04
   -24.1500  9.318498E-03  2.320951E-03  2.447036E-04  9.139041E-05
   -23.7000  5.375514E-03  2.134303E-03  1.950586E-04  8.088678E-05
   -23.2500  3.740856E-03  2.185189E-03  1.788404E-04  7.786355E-05
   -22.8000  2.845078E-03  2.338414E-03  1.734688E-04  7.725528E-05
   -22.3500  2.277508E-03  2.563816E-03  1.729381E-04  7.775545E-05
   -21.9000  1.885643E-03  2.858278E-03  1.751088E-04  7.891361E-05
   -21.4500  1.599767E-03  3.233404E-03  1.791541E-04  8.059250E-05
   -21.0000  1.383185E-03  3.710373E-03  1.846441E-04  8.273274E-05
   -20.5500  1.215415E-03  4.326118E-03  1.918392E-04  8.551246E-05
   -20.1000  1.081940E-03  5.125687E-03  2.001450E-04  8.857116E-05
   -19.6500  9.769209E-04  6.220150E-03  2.107795E-04  9.295087E-05
   -19.2000  8.906388E-04  7.703203E-03  2.225168E-04  9.767483E-05
   -18.7500  8.574180E-04  1.056051E-02  2.558972E-04  1.196540E-04
   -18.3000 -6.801525E-04 -1.781801E-02 -8.902597E-04 -3.864812E-04
   -17.8500  7.385581E-04  1.493142E-02  3.103798E-05 -1.732303E-05
   -17.4000  1.727084E-03  4.564858E-02  5.103628E-04  2.635292E-04
   -16.9500  1.641112E-03  1.017502E-01  7.627875E-04  4.742095E-04
   -16.5000  2.493676E-03  3.926735E-01  1.583958E-03  1.060684E-03
   -16.0500  6.323902E-03  1.322233E+00  3.638757E-03  3.436419E-03
   -15.6000  4.230614E-03  1.273443E+00  4.445333E-03  4.406220E-03
   -15.1500  3.180237E-03  6.355903E-01  5.960394E-03  2.147819E-03
   -14.7000  4.839711E-03  6.798019E-01  9.793891E-03  2.132558E-03
   -14.2500  4.137951E-03  4.117921E-01  6.927750E-03  1.456087E-03
   -13.8000  6.416547E-03  5.025701E-01  7.813170E-03  1.273211E-03
   -13.3500  7.527902E-03  9.999496E-01  5.514883E-03  1.096607E-03
   -12.9000  5.810670E-03  9.345373E-01  4.094531E-03  6.410692E-04
   -12.4500  6.294028E-03  2.554743E-01  5.932161E-03  7.271047E-04
   -12.0000  6.485821E-03  2.622847E-01  1.301078E-02  1.875512E-03
   -11.5500  8.314156E-03  2.485080E-01  1.717237E-02  2.851115E-03
   -11.1000  1.469417E-02  2.135144E-01  2.464894E-02  3.214345E-03
   -10.6500  1.880366E-02  2.728329E-01  2.874638E-02  4.353236E-03
   -10.2000  1.280383E-02  3.212791E-01  1.431127E-02  5.922740E-03
    -9.7500  1.250062E-02  2.167575E-01  9.696679E-03  4.621965E-03
    -9.3000  1.173181E-02  1.856962E-01  1.042327E-02  4.698517E-03
    -8.8500  9.154666E-03  2.131610E-01  1.227080E-02  6.294851E-03
    -8.4000  8.775923E-03  1.152368E-01  7.044787E-03  2.586684E-03
    -7.9500  8.954603E-03  8.689133E-02  6.470500E-03  1.869013E-03
    -7.5000  1.045685E-02  7.328705E-02  6.494112E-03  1.471112E-03
    -7.0500  1.321646E-02  7.125048E-02  8.175890E-03  1.549783E-03
    -6.6000  1.678200E-02  8.155646E-02  1.107323E-02  1.867458E-03
    -6.1500  3.019389E-02  1.165239E-01  1.682705E-02  2.363719E-03
    -5.7000  4.131457E-02  1.550588E-01  2.096249E-02  2.765079E-03
    -5.2500  3.008037E-02  1.550607E-01  1.868254E-02  3.277260E-03
    -4.8000  2.484141E-02  1.480474E-01  1.927117E-02  3.460187E-03
    -4.3500  2.679467E-02  1.242993E-01  2.182940E-02  3.134854E-03
    -3.9000  2.791595E-02  1.047370E-01  2.127223E-02  3.242701E-03
    -3.4500  2.128376E-02  9.410475E-02  1.907899E-02  3.303107E-03
    -3.0000  1.608505E-02  1.050104E-01  1.759089E-02  3.546020E-03
    -2.5500  1.641274E-02  1.201416E-01  2.101383E-02  3.950220E-03
    -2.1000  1.917879E-02  1.288397E-01  2.118348E-02  3.821174E-03
    -1.6500  1.620032E-02  1.043435E-01  1.715682E-02  3.327670E-03
    -1.2000  1.239939E-02  6.946201E-02  1.514551E-02  2.764054E-03
    -0.7500  1.041828E-02  5.548118E-02  1.642885E-02  2.594486E-03
    -0.3000  9.417314E-03  5.292166E-02  1.945430E-02  2.505066E-03
     0.1500  8.973425E-03  5.672387E-02  2.292947E-02  2.518824E-03
     0.6000  9.040464E-03  6.486178E-02  2.703731E-02  2.543095E-03
     1.0500  9.665697E-03  7.318937E-02  3.139535E-02  2.644130E-03
     1.5000  1.196335E-02  8.284097E-02  3.526852E-02  2.843647E-03
     1.9500  1.660290E-02  9.810039E-02  3.998512E-02  3.020995E-03
     2.4000  2.133438E-02  1.119673E-01  4.774303E-02  3.182653E-03
     2.8500  1.862192E-02  1.110981E-01  5.161203E-02  3.413352E-03
     3.3000  1.286088E-02  9.902057E-02  5.385653E-02  3.904457E-03
     3.7500  9.486815E-03  8.551916E-02  6.288306E-02  4.594653E-03
     4.2000  7.860619E-03  7.742667E-02  7.191471E-02  5.315151E-03
     4.6500  7.666186E-03  7.415295E-02  7.642395E-02  6.063771E-03
     5.1000  8.783418E-03  7.038041E-02  7.822532E-02  6.799257E-03
     5.5500  9.940889E-03  6.271143E-02  7.576656E-02  7.327318E-03
     6.0000  9.615946E-03  5.716785E-02  7.426790E-02  7.975334E-03
     6.4500  8.538875E-03  5.575177E-02  7.308535E-02  8.941372E-03
     6.9000  7.706734E-03  5.387319E-02  6.852923E-02  9.884971E-03
     7.3500  7.316958E-03  5.104641E-02  6.422410E-02  1.059534E-02
     7.8000  7.287704E-03  4.760073E-02  6.117337E-02  1.097005E-02
     8.2500  7.499341E-03  4.396190E-02  5.962763E-02  1.108775E-02
     8.7000  7.784547E-03  4.078385E-02  5.971088E-02  1.110645E-02
     9.1500  8.031913E-03  3.848868E-02  6.153478E-02  1.117179E-02
     9.6000  8.306503E-03  3.732941E-02  6.509850E-02  1.143223E-02
    10.0500  8.774863E-03  3.760083E-02  6.984240E-02  1.194307E-02
    10.5000  9.368933E-03  3.928000E-02  7.536966E-02  1.271128E-02
    10.9500  9.844184E-03  4.135004E-02  8.144168E-02  1.371274E-02
    11.4000  1.032242E-02  4.216409E-02  8.607530E-02  1.483960E-02
    11.8500  1.105597E-02  4.163855E-02  8.760908E-02  1.597418E-02
    12.3000  1.199719E-02  4.119563E-02  8.744608E-02  1.703168E-02
    12.7500  1.294628E-02  4.163118E-02  8.686762E-02  1.798520E-02
    13.2000  1.395220E-02  4.255482E-02  8.577684E-02  1.872933E-02
    13.6500  1.503281E-02  4.321877E-02  8.445794E-02  1.913373E-02
    14.1000  1.585608E-02  4.399666E-02  8.401496E-02  1.935501E-02
    14.5500  1.616901E-02  4.522627E-02  8.484507E-02  1.968682E-02
    15.0000  1.613436E-02  4.615412E-02  8.642701E-02  2.032433E-02
