#  Fermi level (eV):  -7.000
#  Charge transfer :   0.085
#    Electron counts for each orbital momentum:
#       0      0.359
#       1      6.445
#       2      1.112
#       3      0.000
#  Number of atoms in cluster: 150
#  Lorentzian broadening with HWHH     0.1000 eV
# -----------------------------------------------------------------------
#      e        sDOS           pDOS          dDOS          fDOS    @#
   -30.0000  8.158945E-04  1.015609E-02  1.026935E-03  5.406518E-04
   -29.5500  1.070892E-03  1.418808E-02  1.279350E-03  6.519871E-04
   -29.1000  2.325031E-03  2.538203E-02  1.881967E-03  9.087405E-04
   -28.6500  1.503892E-02  1.285937E-01  5.168405E-03  2.311090E-03
   -28.2000  1.548656E-02  1.723859E-01  1.458048E-02  5.097680E-03
   -27.7500  1.689353E-02  4.726230E-01  4.033577E-02  1.673770E-02
   -27.3000  2.781254E-02  3.244365E-01  8.057960E-02  3.857825E-02
   -26.8500  6.991260E-03  1.128439E-01  2.317724E-02  1.545554E-02
   -26.4000  1.413670E-03  6.977391E-02  4.020170E-03  2.264478E-03
   -25.9500  8.755446E-04  1.089756E-01  2.348827E-03  1.311088E-03
   -25.5000  7.490677E-04  2.613499E-01  2.226790E-03  1.405140E-03
   -25.0500  1.438110E-03  2.170772E+00  9.064123E-03  1.018954E-02
   -24.6000  5.161699E-03  7.561057E+00  1.504047E-02  7.233905E-03
   -24.1500  8.225798E-04  2.382777E+00  4.137807E-03  7.104942E-03
   -23.7000  5.268708E-04  2.499705E-01  1.739069E-03  1.055725E-03
   -23.2500  4.674014E-04  9.982992E-02  1.440120E-03  7.495518E-04
   -22.8000  4.467996E-04  5.481197E-02  1.371756E-03  6.735551E-04
   -22.3500  4.412859E-04  3.495210E-02  1.373748E-03  6.501355E-04
   -21.9000  4.452198E-04  2.438708E-02  1.411372E-03  6.487061E-04
   -21.4500  4.569914E-04  1.808992E-02  1.473289E-03  6.590938E-04
   -21.0000  4.770338E-04  1.404173E-02  1.558417E-03  6.794058E-04
   -20.5500  5.071143E-04  1.129844E-02  1.669785E-03  7.100346E-04
   -20.1000  5.501058E-04  9.368848E-03  1.809989E-03  7.486304E-04
   -19.6500  6.117518E-04  7.985909E-03  1.994220E-03  8.018945E-04
   -19.2000  7.036951E-04  7.002734E-03  2.251297E-03  8.832014E-04
   -18.7500  8.438231E-04  6.317309E-03  2.585471E-03  9.663225E-04
   -18.3000  1.070529E-03  5.887202E-03  3.017251E-03  1.008510E-03
   -17.8500  1.702840E-03  6.569002E-03  5.402349E-03  2.472387E-03
   -17.4000  1.742023E-02  5.574950E-02  1.449551E-01  5.923882E-02
   -16.9500  1.249704E-02  2.786648E-02  5.773766E-02  1.652412E-02
   -16.5000  4.547826E-02  4.408039E-02  4.792648E-02  1.713351E-02
   -16.0500  3.114724E-02  5.992838E-02  6.123604E-02  1.977166E-02
   -15.6000  6.427160E-02  8.043923E-02  1.208539E-01  2.916475E-02
   -15.1500  4.299591E-02  7.084789E-02  1.079732E-01  3.448060E-02
   -14.7000  4.295841E-02  8.631028E-02  9.310151E-02  2.872879E-02
   -14.2500  3.558657E-02  8.414359E-02  1.207338E-01  2.918312E-02
   -13.8000  3.718260E-02  9.835735E-02  1.880351E-01  5.002670E-02
   -13.3500  3.377338E-02  1.058915E-01  1.717812E-01  6.341443E-02
   -12.9000  2.898118E-02  6.538539E-02  1.543382E-01  7.161661E-02
   -12.4500  2.071575E-02  5.210518E-02  1.008830E-01  5.398432E-02
   -12.0000  1.159918E-02  2.850033E-02  4.233942E-02  2.134134E-02
   -11.5500  7.245509E-03  1.517841E-02  2.642491E-02  1.013591E-02
   -11.1000  8.521737E-03  1.387672E-02  3.178348E-02  1.042215E-02
   -10.6500  1.355830E-02  2.137558E-02  6.942699E-02  1.928334E-02
   -10.2000  1.858809E-02  2.890679E-02  8.325253E-02  2.610312E-02
    -9.7500  2.323586E-02  4.332135E-02  8.087248E-02  2.743849E-02
    -9.3000  3.960901E-02  4.565950E-02  9.386240E-02  2.868501E-02
    -8.8500  3.844843E-02  5.573869E-02  1.020104E-01  2.518919E-02
    -8.4000  3.966753E-02  6.782832E-02  1.186184E-01  1.877396E-02
    -7.9500  3.797769E-02  4.985879E-02  1.038264E-01  1.753316E-02
    -7.5000  1.775213E-02  4.011353E-02  1.078875E-01  1.896365E-02
    -7.0500  1.446052E-02  3.451035E-02  1.190540E-01  1.692285E-02
    -6.6000  1.881751E-02  3.429984E-02  1.650005E-01  1.604619E-02
    -6.1500  5.009155E-02  5.706282E-02  4.184158E-01  2.357497E-02
    -5.7000  4.556393E-02  7.830651E-02  5.060805E-01  3.509535E-02
    -5.2500  4.453445E-02  6.599305E-02  7.066317E-01  4.781833E-02
    -4.8000  4.488404E-02  5.852155E-02  6.485972E-01  4.261259E-02
    -4.3500  3.952535E-02  4.734876E-02  4.758549E-01  3.479649E-02
    -3.9000  3.037891E-02  4.483925E-02  6.950769E-01  4.033198E-02
    -3.4500  3.158203E-02  4.619086E-02  9.535242E-01  4.379302E-02
    -3.0000  4.147128E-02  5.063871E-02  1.219257E+00  5.346376E-02
    -2.5500  7.321495E-02  5.658419E-02  1.264789E+00  6.716881E-02
    -2.1000  1.135227E-01  7.687305E-02  1.807257E+00  8.574912E-02
    -1.6500  1.322682E-01  8.794726E-02  1.204222E+00  6.275463E-02
    -1.2000  1.099364E-01  1.197617E-01  9.029108E-01  5.451074E-02
    -0.7500  1.098810E-01  1.310982E-01  1.133292E+00  6.087150E-02
    -0.3000  9.701247E-02  1.367607E-01  9.108597E-01  6.961232E-02
     0.1500  8.923451E-02  1.326754E-01  4.884101E-01  7.367305E-02
     0.6000  9.736545E-02  1.272281E-01  4.184575E-01  9.538690E-02
     1.0500  9.287817E-02  1.265224E-01  3.942601E-01  1.299035E-01
     1.5000  6.721585E-02  1.289501E-01  3.563116E-01  1.340503E-01
     1.9500  5.945442E-02  1.404117E-01  3.564589E-01  1.347843E-01
     2.4000  6.188278E-02  1.485960E-01  3.745918E-01  1.453104E-01
     2.8500  5.544585E-02  1.585036E-01  4.089726E-01  1.600354E-01
     3.3000  5.285016E-02  1.760347E-01  4.174959E-01  1.764482E-01
     3.7500  5.549745E-02  1.855031E-01  3.958552E-01  1.918374E-01
     4.2000  6.596159E-02  1.846158E-01  3.749812E-01  2.054546E-01
     4.6500  7.893090E-02  1.935861E-01  3.578929E-01  2.271994E-01
     5.1000  8.367548E-02  2.054762E-01  3.043600E-01  2.384451E-01
     5.5500  8.245906E-02  2.025134E-01  2.473965E-01  2.374960E-01
     6.0000  8.116487E-02  1.935401E-01  2.171921E-01  2.423086E-01
     6.4500  7.379341E-02  1.851024E-01  2.059008E-01  2.615370E-01
     6.9000  6.015910E-02  1.784653E-01  1.975944E-01  2.921021E-01
     7.3500  4.617343E-02  1.754255E-01  1.830368E-01  3.145713E-01
     7.8000  3.747526E-02  1.784448E-01  1.670969E-01  3.256149E-01
     8.2500  3.446832E-02  1.954675E-01  1.615501E-01  3.439997E-01
     8.7000  3.421336E-02  2.193079E-01  1.670219E-01  3.720071E-01
     9.1500  3.422817E-02  2.232951E-01  1.694859E-01  3.900923E-01
     9.6000  3.365145E-02  2.108285E-01  1.639497E-01  3.873632E-01
    10.0500  3.274158E-02  1.985301E-01  1.601158E-01  3.770779E-01
    10.5000  3.132990E-02  1.857625E-01  1.633712E-01  3.771628E-01
    10.9500  2.970999E-02  1.674565E-01  1.715936E-01  3.891843E-01
    11.4000  2.930322E-02  1.521874E-01  1.828995E-01  4.062001E-01
    11.8500  3.018522E-02  1.459869E-01  1.995855E-01  4.290787E-01
    12.3000  3.045620E-02  1.435729E-01  2.145622E-01  4.584985E-01
    12.7500  2.864241E-02  1.380368E-01  2.128702E-01  4.947781E-01
    13.2000  2.730013E-02  1.359526E-01  2.068652E-01  5.392572E-01
    13.6500  2.659626E-02  1.355508E-01  2.042591E-01  5.598800E-01
    14.1000  2.574389E-02  1.334855E-01  2.030684E-01  5.449403E-01
    14.5500  2.494002E-02  1.309705E-01  2.008594E-01  5.307178E-01
    15.0000  2.500427E-02  1.267424E-01  1.992910E-01  5.317975E-01
