#  Fermi level (eV):  -8.096
#  Charge transfer :  -0.171
#    Electron counts for each orbital momentum:
#       0      1.844
#       1      4.225
#       2      0.104
#       3      0.000
#  Number of atoms in cluster: 110
#  Lorentzian broadening with HWHH     0.1000 eV
# -----------------------------------------------------------------------
#      e        sDOS           pDOS          dDOS          fDOS    @#
   -30.0000  8.081045E-03  6.542013E-04  1.110106E-04  5.995070E-05
   -29.5500  1.212703E-02  7.041010E-04  1.170064E-04  6.233054E-05
   -29.1000  2.088499E-02  7.785674E-04  1.277231E-04  6.654921E-05
   -28.6500  5.201569E-02  9.823721E-04  1.612711E-04  7.867993E-05
   -28.2000  4.070114E-01  2.971057E-03  5.304108E-04  2.214926E-04
   -27.7500  6.740803E-01  2.676214E-03  8.004911E-04  3.393308E-04
   -27.3000  1.536492E+00  3.859855E-03  1.110619E-03  6.963627E-04
   -26.8500  6.277327E-01  2.632192E-03  5.348099E-04  3.189693E-04
   -26.4000  8.340930E-02  1.337321E-03  2.030641E-04  1.014958E-04
   -25.9500  3.492418E-02  1.471719E-03  2.005022E-04  8.736774E-05
   -25.5000  2.649583E-02  2.233817E-03  3.086111E-04  1.049297E-04
   -25.0500  1.246125E-01  1.356665E-02  2.120229E-03  4.556569E-04
   -24.6000  1.071423E-02  2.003904E-03  6.881143E-04  8.140845E-04
   -24.1500  1.836050E-02  3.023376E-03  3.893680E-04  1.213472E-04
   -23.7000  7.753657E-03  2.007437E-03  2.117152E-04  8.521078E-05
   -23.2500  4.986403E-03  1.927190E-03  1.796089E-04  7.928086E-05
   -22.8000  3.660887E-03  2.016742E-03  1.706353E-04  7.810916E-05
   -22.3500  2.865264E-03  2.181971E-03  1.691454E-04  7.856294E-05
   -21.9000  2.330827E-03  2.404376E-03  1.710596E-04  7.980859E-05
   -21.4500  1.948071E-03  2.686368E-03  1.751210E-04  8.167146E-05
   -21.0000  4.212053E-03 -1.556663E-01  2.384231E-01 -5.052206E-01
   -20.5500  1.441858E-03  3.482424E-03  1.879874E-04  8.703716E-05
   -20.1000  1.269034E-03  4.047655E-03  1.967888E-04  9.067502E-05
   -19.6500  1.131932E-03  4.785852E-03  2.076421E-04  9.527600E-05
   -19.2000  1.502537E-02 -3.810977E-02  8.199358E-04 -7.858146E-05
   -18.7500  9.387824E-04  7.186394E-03  2.400424E-04  1.101996E-04
   -18.3000  8.738625E-04  9.224006E-03  2.627296E-04  1.210115E-04
   -17.8500  8.286645E-04  1.233605E-02  2.893023E-04  1.326747E-04
   -17.4000  9.062481E-04  2.099436E-02  4.602968E-04  2.618498E-04
   -16.9500  3.389808E-04 -2.331534E-03 -3.377535E-04 -2.541925E-04
   -16.5000  6.972861E-03  2.624325E-01  4.039660E-03  2.025600E-03
   -16.0500  2.352891E-03  3.123966E-01  3.180847E-03  2.097175E-03
   -15.6000  1.303622E-02  1.990034E-01  2.767653E-04  7.965807E-05
   -15.1500  4.224980E-03  1.061096E+00  6.924098E-03  4.850889E-03
   -14.7000  5.935505E-03  9.828155E-01  7.405707E-03  3.639638E-03
   -14.2500  6.818871E-03  7.765027E-01  7.946901E-03  2.409137E-03
   -13.8000  9.766007E-03  1.207587E+00  6.011633E-04  9.295723E-05
   -13.3500  8.704802E-03  5.261065E-01  9.544932E-03  2.206865E-03
   -12.9000  8.397877E-03  6.748412E-01  7.584150E-03  1.679621E-03
   -12.4500  7.234240E-03  6.256671E-01  5.804209E-03  1.103835E-03
   -12.0000  5.292388E-03  4.693667E-01  4.438971E-03  9.881864E-04
   -11.5500  6.855945E-03  2.241345E-01  7.129387E-03  1.865433E-03
   -11.1000  7.197220E-03  1.612684E-01  1.315549E-02  2.130372E-03
   -10.6500  9.582345E-03  1.760465E-01  1.691617E-02  3.043302E-03
   -10.2000  8.135485E-03  3.567067E-01  4.133657E-03  2.178220E-04
    -9.7500  1.567896E-02  2.787515E-01  2.176328E-02  4.064012E-03
    -9.3000  1.987742E-02  2.910197E-01  2.412623E-02  5.704406E-03
    -8.8500  1.755949E-02  3.345209E-01  2.229204E-02  8.165884E-03
    -8.4000  7.725058E-03  1.471487E-01  6.444073E-03  4.488485E-04
    -7.9500  2.022919E-02  1.755704E-01  1.555725E-02  6.743054E-03
    -7.5000  1.464152E-02  1.557491E-01  1.254442E-02  4.627547E-03
    -7.0500  1.539484E-02  1.616377E-01  1.374290E-02  4.078774E-03
    -6.6000  1.449066E-02  1.456410E-01  1.399793E-02  3.540030E-03
    -6.1500  1.254957E-02  1.222852E-01  1.315759E-02  3.137206E-03
    -5.7000  1.491605E-02  1.134481E-01  1.413634E-02  2.944591E-03
    -5.2500  1.791636E-02  1.436720E-01  1.676702E-02  3.663680E-03
    -4.8000  1.198618E-02  9.128266E-02  1.195001E-02  1.199587E-03
    -4.3500  2.239223E-02  1.267859E-01  1.529132E-02  3.462457E-03
    -3.9000  2.149813E-02  1.066219E-01  1.621200E-02  3.062522E-03
    -3.4500  1.951959E-02  9.669514E-02  1.734694E-02  2.963541E-03
    -3.0000  1.205158E-02  9.019809E-02  1.887423E-02  1.641994E-03
    -2.5500  1.824362E-02  1.292813E-01  2.088511E-02  3.582739E-03
    -2.1000  1.862910E-02  1.379127E-01  2.062763E-02  3.605236E-03
    -1.6500  1.501652E-02  1.173674E-01  1.916010E-02  3.466106E-03
    -1.2000  1.323271E-02  8.394231E-02  1.662001E-02  3.111409E-03
    -0.7500  1.235805E-02  7.097085E-02  1.654102E-02  2.910218E-03
    -0.3000  1.149039E-02  6.425977E-02  1.714635E-02  2.827210E-03
     0.1500  1.162180E-02  6.111562E-02  1.838424E-02  2.919823E-03
     0.6000  1.255273E-02  6.975593E-02  3.066226E-02  3.244060E-03
     1.0500  1.391495E-02  6.573689E-02  2.321438E-02  3.126196E-03
     1.5000  1.467433E-02  6.926994E-02  2.628136E-02  3.156906E-03
     1.9500  1.568703E-02  7.219852E-02  2.915291E-02  3.240741E-03
     2.4000  1.283214E-02  6.377390E-02  3.741554E-02  4.326216E-03
     2.8500  1.829017E-02  7.887447E-02  3.609657E-02  3.639585E-03
     3.3000  1.913944E-02  7.962205E-02  4.123201E-02  3.976584E-03
     3.7500  1.808526E-02  7.735953E-02  4.583643E-02  4.286009E-03
     4.2000  1.620893E-02  7.768347E-02  4.978638E-02  4.605718E-03
     4.6500  1.442654E-02  8.031504E-02  5.361057E-02  5.036584E-03
     5.1000  1.275105E-02  7.992981E-02  5.592040E-02  5.450870E-03
     5.5500  1.106790E-02  7.506897E-02  5.661094E-02  5.765040E-03
     6.0000  1.343886E-02  5.648374E-02  5.221491E-02  7.102890E-03
     6.4500  9.320225E-03  6.529182E-02  5.973078E-02  6.575494E-03
     6.9000  9.183326E-03  6.160005E-02  6.325399E-02  7.049186E-03
     7.3500  8.905893E-03  5.986376E-02  6.840705E-02  7.571923E-03
     7.8000  1.375918E-02  5.440623E-02  6.006196E-02  8.809336E-03
     8.2500  7.252319E-03  5.775119E-02  7.855351E-02  8.772599E-03
     8.7000  6.749936E-03  5.386218E-02  7.814414E-02  9.407120E-03
     9.1500  6.826212E-03  5.044503E-02  7.599314E-02  1.015705E-02
     9.6000  7.252959E-03  4.800292E-02  7.467577E-02  1.102939E-02
    10.0500  7.786188E-03  4.575717E-02  7.481861E-02  1.195769E-02
    10.5000  8.382611E-03  4.362475E-02  7.566397E-02  1.284423E-02
    10.9500  9.065927E-03  4.200933E-02  7.660760E-02  1.362208E-02
    11.4000  1.441440E-02  5.225266E-02  7.610367E-02  1.286908E-02
    11.8500  1.034380E-02  4.095458E-02  7.627914E-02  1.506682E-02
    12.3000  1.083790E-02  4.091217E-02  7.510575E-02  1.597710E-02
    12.7500  1.127382E-02  4.145354E-02  7.415660E-02  1.701036E-02
    13.2000  1.162131E-02  4.265000E-02  7.394738E-02  1.798173E-02
    13.6500  1.209982E-02  4.359741E-02  7.437642E-02  1.876321E-02
    14.1000  1.292108E-02  4.363719E-02  7.506354E-02  1.931297E-02
    14.5500  1.404890E-02  4.337527E-02  7.623318E-02  1.961033E-02
    15.0000  1.526999E-02  4.376498E-02  7.828619E-02  1.971654E-02
