#  Fermi level (eV):  -5.852
#  Charge transfer :  -0.199
#    Electron counts for each orbital momentum:
#       0      1.817
#       1      4.274
#       2      0.107
#       3      0.000
#  Number of atoms in cluster: 132
#  Lorentzian broadening with HWHH     0.1000 eV
# -----------------------------------------------------------------------
#      e        sDOS           pDOS          dDOS          fDOS    @#
   -30.0000  4.835026E-03  5.841177E-04  9.954331E-05  5.438447E-05
   -29.5500  6.599616E-03  6.224194E-04  1.025199E-04  5.563655E-05
   -29.1000  9.814037E-03  6.731141E-04  1.064460E-04  5.733856E-05
   -28.6500  1.809998E-02  7.644297E-04  1.127029E-04  6.004754E-05
   -28.2000  1.325870E-01  1.522462E-03  1.317664E-04  6.704940E-05
   -27.7500  1.163111E-01  2.198872E-03  2.457275E-04  9.603926E-05
   -27.3000  2.114158E-01  3.123730E-03  3.513664E-04  2.059985E-04
   -26.8500  3.884048E-01  3.434339E-03  8.541495E-04  6.074688E-04
   -26.4000  1.935582E+00  2.480682E-03  6.689708E-04  4.614189E-04
   -25.9500  4.153919E-01  1.159780E-03  1.778051E-04  1.190868E-04
   -25.5000  7.693478E-02  1.090137E-03  1.396078E-04  7.563769E-05
   -25.0500  3.170217E-02  1.133143E-03  1.329052E-04  6.845640E-05
   -24.6000  1.733054E-02  1.205202E-03  1.322356E-04  6.642412E-05
   -24.1500  1.095585E-02  1.295605E-03  1.337595E-04  6.600227E-05
   -23.7000  7.570275E-03  1.402975E-03  1.364076E-04  6.628864E-05
   -23.2500  5.555872E-03  1.528828E-03  1.398129E-04  6.697107E-05
   -22.8000  4.260193E-03  1.676284E-03  1.438446E-04  6.792070E-05
   -22.3500  3.377858E-03  1.849899E-03  1.484874E-04  6.908870E-05
   -21.9000  2.750458E-03  2.056413E-03  1.537657E-04  7.045066E-05
   -21.4500  2.288729E-03  2.304281E-03  1.597601E-04  7.200556E-05
   -21.0000  1.940640E-03  2.606826E-03  1.666990E-04  7.381384E-05
   -20.5500  1.672360E-03  2.982063E-03  1.747319E-04  7.588517E-05
   -20.1000  1.462728E-03  3.458022E-03  1.842588E-04  7.831452E-05
   -19.6500  1.297919E-03  4.078565E-03  1.958888E-04  8.124709E-05
   -19.2000  1.169955E-03  4.922576E-03  2.109656E-04  8.507415E-05
   -18.7500  1.068328E-03  6.106289E-03  2.296749E-04  8.950305E-05
   -18.3000  9.878262E-04  7.860210E-03  2.528182E-04  9.383424E-05
   -17.8500  1.016095E-03  1.156450E-02  3.311299E-04  1.164321E-04
   -17.4000  1.369150E-03  2.336228E-02  7.297166E-04  3.624261E-04
   -16.9500 -1.851404E-04 -4.516610E-02 -4.785792E-03 -2.914366E-03
   -16.5000  3.194495E-03  3.967543E-01  4.568424E-03  9.145371E-04
   -16.0500  8.999364E-03  3.321824E-01  5.990112E-03  1.469694E-03
   -15.6000  6.617280E-03  4.887926E-01  5.904930E-03  1.554930E-03
   -15.1500  1.421909E-02  4.399321E-01  8.428424E-03  1.643704E-03
   -14.7000  1.018727E-02  5.854100E-01  8.337840E-03  1.968627E-03
   -14.2500  1.241363E-02  5.939703E-01  7.443420E-03  1.895056E-03
   -13.8000  9.117125E-03  5.255797E-01  6.141570E-03  1.466115E-03
   -13.3500  1.266517E-02  5.322823E-01  7.602558E-03  1.649290E-03
   -12.9000  1.057229E-02  6.097522E-01  7.159712E-03  2.048022E-03
   -12.4500  7.185491E-03  9.528517E-01  6.855399E-03  2.044861E-03
   -12.0000  6.045732E-03  1.077552E+00  4.507666E-03  1.281449E-03
   -11.5500  2.822077E-03  8.415505E-01  3.216396E-03  7.808554E-04
   -11.1000  2.516757E-03  2.675774E-01  2.503710E-03  6.055161E-04
   -10.6500  3.065111E-03  1.228310E-01  3.023035E-03  6.656927E-04
   -10.2000  4.533709E-03  9.772061E-02  5.362013E-03  1.038846E-03
    -9.7500  6.422248E-03  1.069733E-01  1.142360E-02  2.080157E-03
    -9.3000  8.338714E-03  1.594325E-01  2.440195E-02  4.609300E-03
    -8.8500  9.529749E-03  2.140569E-01  2.934774E-02  7.760333E-03
    -8.4000  8.999840E-03  2.914629E-01  2.877999E-02  1.446841E-02
    -7.9500  1.045258E-02  2.344742E-01  1.931486E-02  9.876937E-03
    -7.5000  1.286887E-02  1.648376E-01  1.321530E-02  5.243995E-03
    -7.0500  1.015720E-02  1.542008E-01  1.534279E-02  7.320669E-03
    -6.6000  1.404307E-02  9.130283E-02  8.002579E-03  2.235615E-03
    -6.1500  1.946969E-02  5.751760E-02  7.319796E-03  1.367892E-03
    -5.7000  2.745597E-02  4.762744E-02  9.846171E-03  1.561049E-03
    -5.2500  3.967075E-02  6.089765E-02  1.697505E-02  2.720733E-03
    -4.8000  4.706637E-02  1.548722E-01  2.957102E-02  5.685714E-03
    -4.3500  3.595870E-02  1.841898E-01  2.831866E-02  5.234812E-03
    -3.9000  4.182899E-02  1.703344E-01  2.751297E-02  4.735632E-03
    -3.4500  2.950272E-02  2.551893E-01  4.437966E-02  5.198795E-03
    -3.0000  1.783706E-02  2.298003E-01  3.305509E-02  4.250682E-03
    -2.5500  1.232949E-02  1.808044E-01  2.142000E-02  2.981942E-03
    -2.1000  1.052498E-02  1.376293E-01  1.443683E-02  2.305925E-03
    -1.6500  1.122325E-02  1.107645E-01  1.347007E-02  2.166972E-03
    -1.2000  1.308209E-02  9.719737E-02  1.456550E-02  2.266859E-03
    -0.7500  1.559869E-02  8.955582E-02  1.593513E-02  2.415671E-03
    -0.3000  1.818220E-02  8.725395E-02  1.726789E-02  2.590978E-03
     0.1500  2.051426E-02  8.927784E-02  1.856671E-02  2.810285E-03
     0.6000  2.090016E-02  9.201911E-02  2.009234E-02  3.092556E-03
     1.0500  2.038656E-02  9.581081E-02  2.252773E-02  3.403322E-03
     1.5000  2.157116E-02  1.036453E-01  2.533387E-02  3.589858E-03
     1.9500  2.055868E-02  1.159417E-01  2.805629E-02  3.687011E-03
     2.4000  1.625335E-02  1.198704E-01  3.130054E-02  3.850758E-03
     2.8500  1.250206E-02  1.131492E-01  3.470555E-02  4.062017E-03
     3.3000  1.009859E-02  1.047286E-01  3.825715E-02  4.178926E-03
     3.7500  9.094395E-03  9.661665E-02  4.193026E-02  4.393617E-03
     4.2000  8.633447E-03  9.146977E-02  4.550044E-02  4.867106E-03
     4.6500  7.898184E-03  8.958836E-02  4.840701E-02  5.610653E-03
     5.1000  7.033015E-03  7.984624E-02  4.931965E-02  5.947001E-03
     5.5500  6.424064E-03  6.852259E-02  4.841267E-02  5.890056E-03
     6.0000  6.237234E-03  6.118163E-02  4.697347E-02  5.912576E-03
     6.4500  6.312172E-03  5.461854E-02  4.709283E-02  6.005929E-03
     6.9000  6.348442E-03  4.956089E-02  4.893289E-02  6.225139E-03
     7.3500  6.320140E-03  4.725582E-02  5.145575E-02  6.609792E-03
     7.8000  6.274958E-03  4.721659E-02  5.386853E-02  7.128992E-03
     8.2500  6.281320E-03  4.790719E-02  5.586406E-02  7.676932E-03
     8.7000  6.340000E-03  4.795505E-02  5.715289E-02  8.171808E-03
     9.1500  6.361297E-03  4.788471E-02  5.754419E-02  8.829160E-03
     9.6000  6.351700E-03  4.780202E-02  5.696244E-02  9.711235E-03
    10.0500  6.451032E-03  4.586687E-02  5.657574E-02  1.035569E-02
    10.5000  6.737399E-03  4.349246E-02  5.795323E-02  1.072337E-02
    10.9500  7.183027E-03  4.146716E-02  5.977944E-02  1.090577E-02
    11.4000  7.747684E-03  3.927290E-02  5.978978E-02  1.102416E-02
    11.8500  8.412811E-03  3.722902E-02  5.894095E-02  1.124000E-02
    12.3000  9.248651E-03  3.621269E-02  5.884999E-02  1.158735E-02
    12.7500  1.043658E-02  3.674716E-02  6.065486E-02  1.197100E-02
    13.2000  1.210676E-02  3.899128E-02  6.524182E-02  1.237213E-02
    13.6500  1.379688E-02  4.228174E-02  7.276574E-02  1.277834E-02
    14.1000  1.439036E-02  4.450501E-02  8.162654E-02  1.318688E-02
    14.5500  1.399079E-02  4.456334E-02  8.976947E-02  1.375960E-02
    15.0000  1.370343E-02  4.339814E-02  9.676438E-02  1.466934E-02
