#  Fermi level (eV):  -5.846
#  Charge transfer :  -0.149
#    Electron counts for each orbital momentum:
#       0      1.770
#       1      4.252
#       2      0.128
#       3      0.000
#  Number of atoms in cluster: 142
#  Lorentzian broadening with HWHH     0.1000 eV
# -----------------------------------------------------------------------
#      e        sDOS           pDOS          dDOS          fDOS    @#
   -30.0000  9.056163E-03  6.352105E-04  9.844070E-05  5.215306E-05
   -29.5500  1.434875E-02  6.822020E-04  1.028103E-04  5.395351E-05
   -29.1000  2.892616E-02  7.548463E-04  1.109717E-04  5.701553E-05
   -28.6500  2.150974E-01  1.080803E-03  1.665484E-04  6.789403E-05
   -28.2000  2.212130E-01  2.114041E-03  2.540143E-04  9.171118E-05
   -27.7500  6.031219E-01  3.338598E-03  5.754489E-04  3.345121E-04
   -27.3000  1.777516E+00  2.552738E-03  8.709243E-04  6.679708E-04
   -26.8500  5.969968E-01  2.084665E-03  4.929500E-04  2.675029E-04
   -26.4000  9.154426E-02  1.184729E-03  1.610180E-04  8.577439E-05
   -25.9500  3.218665E-02  1.143350E-03  1.323733E-04  6.731992E-05
   -25.5000  1.726767E-02  1.216552E-03  1.295094E-04  6.388729E-05
   -25.0500  1.133783E-02  1.369322E-03  1.389111E-04  6.598176E-05
   -24.6000  8.542723E-03  2.639314E-03  9.905141E-04  1.119366E-03
   -24.1500  1.426590E-02  3.285017E-03  3.081066E-04  1.176483E-04
   -23.7000  5.184518E-03  1.855811E-03  1.584174E-04  6.929299E-05
   -23.2500  3.543074E-03  1.851954E-03  1.419846E-04  6.503123E-05
   -22.8000  2.794664E-03  2.021518E-03  1.430988E-04  6.532090E-05
   -22.3500  2.294570E-03  2.247042E-03  1.467694E-04  6.635191E-05
   -21.9000  1.929962E-03  2.527543E-03  1.516490E-04  6.775757E-05
   -21.4500  1.652838E-03  2.874090E-03  1.574314E-04  6.943249E-05
   -21.0000  5.387226E-03  6.912070E-02  3.915051E-02 -2.387809E-02
   -20.5500  1.266825E-03  3.864228E-03  1.721082E-04  7.377286E-05
   -20.1000  1.131198E-03  4.593722E-03  1.815216E-04  7.663589E-05
   -19.6500  1.024331E-03  5.589701E-03  1.931851E-04  8.034308E-05
   -19.2000  1.049942E-02 -8.118388E-03  8.504706E-04  2.031734E-05
   -18.7500  8.705632E-04  9.048642E-03  2.230050E-04  8.943090E-05
   -18.3000  8.923630E-04  1.339575E-02  2.740690E-04  1.282345E-04
   -17.8500  1.069934E-03  1.961474E-02  1.765169E-04  1.653476E-04
   -17.4000 -6.121722E-04 -9.291944E-02 -5.403070E-03 -3.371731E-03
   -16.9500  2.502030E-03  1.885393E-01  9.103976E-04  3.603332E-04
   -16.5000  8.511862E-03  5.959919E-01  2.578659E-03  1.408184E-03
   -16.0500  5.748225E-03  6.168794E-01  3.014287E-03  1.390181E-03
   -15.6000  2.630218E-02  5.044867E-01  5.158525E-04  7.817708E-05
   -15.1500  4.717537E-03  9.043531E-01  7.037413E-03  2.294000E-03
   -14.7000  5.036870E-03  7.324945E-01  8.738324E-03  2.088145E-03
   -14.2500  6.047005E-03  4.526434E-01  8.277211E-03  1.681355E-03
   -13.8000  1.320893E-02  1.681825E+00  8.192148E-04  8.318591E-05
   -13.3500  1.333284E-02  4.807933E-01  6.765247E-03  1.869643E-03
   -12.9000  9.190968E-03  9.451154E-01  7.898851E-03  2.017563E-03
   -12.4500  6.029878E-03  8.776359E-01  6.163906E-03  1.305555E-03
   -12.0000  4.074232E-03  6.438649E-01  3.905016E-03  6.922470E-04
   -11.5500  1.894485E-03  1.492671E-01  2.285122E-03  4.858836E-04
   -11.1000  1.444900E-03  6.602981E-02  2.775920E-03  5.574682E-04
   -10.6500  1.588872E-03  5.367715E-02  5.952889E-03  1.048865E-03
   -10.2000  5.554936E-03  2.350377E-01  3.677118E-03  2.117218E-04
    -9.7500  3.289443E-03  1.080574E-01  3.406977E-02  4.551290E-03
    -9.3000  2.787468E-03  1.437308E-01  3.798212E-02  7.621533E-03
    -8.8500  3.858427E-03  1.943128E-01  4.128653E-02  1.331512E-02
    -8.4000  5.859957E-03  1.099385E-01  4.090806E-03  3.672980E-04
    -7.9500  3.292722E-03  2.155280E-01  1.844832E-02  6.230459E-03
    -7.5000  3.857941E-03  3.287044E-01  7.034614E-03  6.413019E-03
    -7.0500  4.638565E-03  6.951532E-02  3.223792E-03  1.755890E-03
    -6.6000  8.180353E-03  3.278441E-02  3.282049E-03  1.429334E-03
    -6.1500  2.179159E-02  3.052429E-02  5.834902E-03  2.541591E-03
    -5.7000  1.048868E-01  5.133842E-02  2.101428E-02  9.347484E-03
    -5.2500  7.557674E-02  9.012784E-02  2.360349E-02  7.771429E-03
    -4.8000  9.443182E-03  8.138282E-02  1.161619E-02  9.027038E-04
    -4.3500  2.263044E-02  2.548204E-01  2.824344E-02  6.032237E-03
    -3.9000  1.875823E-02  2.042984E-01  1.721771E-02  3.520515E-03
    -3.4500  2.315065E-02  1.723858E-01  1.466496E-02  2.729681E-03
    -3.0000  1.145869E-02  9.342429E-02  1.642476E-02  1.360214E-03
    -2.5500  2.025692E-02  1.443856E-01  1.241780E-02  1.753334E-03
    -2.1000  2.169736E-02  1.184068E-01  1.200534E-02  1.453944E-03
    -1.6500  2.169024E-02  1.051085E-01  1.134421E-02  1.307991E-03
    -1.2000  1.781064E-02  1.082887E-01  1.213444E-02  1.323705E-03
    -0.7500  1.513977E-02  1.121635E-01  1.446966E-02  1.400427E-03
    -0.3000  1.618916E-02  1.139362E-01  1.793201E-02  1.583952E-03
     0.1500  1.694608E-02  1.022809E-01  1.983184E-02  1.757539E-03
     0.6000  1.161200E-02  7.131298E-02  2.624321E-02  2.611283E-03
     1.0500  1.198362E-02  1.382551E-01  2.981248E-02  2.492669E-03
     1.5000  9.702925E-03  1.646166E-01  3.716933E-02  2.896449E-03
     1.9500  7.233294E-03  1.296064E-01  3.388981E-02  3.086706E-03
     2.4000  1.172991E-02  6.454599E-02  3.188042E-02  3.449391E-03
     2.8500  6.412027E-03  9.392191E-02  3.515607E-02  3.857684E-03
     3.3000  6.139190E-03  8.514029E-02  3.459553E-02  4.239815E-03
     3.7500  5.905958E-03  8.175991E-02  3.574291E-02  4.714445E-03
     4.2000  5.877848E-03  8.371385E-02  4.001324E-02  5.193108E-03
     4.6500  6.272079E-03  7.852877E-02  4.518451E-02  5.676969E-03
     5.1000  6.306415E-03  6.203288E-02  4.709099E-02  5.842951E-03
     5.5500  6.043740E-03  5.166683E-02  4.665856E-02  5.624185E-03
     6.0000  1.204042E-02  5.577799E-02  4.431633E-02  5.591883E-03
     6.4500  5.807263E-03  4.122152E-02  4.150494E-02  5.208272E-03
     6.9000  5.757611E-03  4.179107E-02  4.058780E-02  5.478244E-03
     7.3500  5.700057E-03  4.440995E-02  4.377468E-02  6.071869E-03
     7.8000  1.222718E-02  5.300666E-02  5.097369E-02  6.907470E-03
     8.2500  6.117305E-03  4.333634E-02  5.547042E-02  7.128868E-03
     8.7000  6.500891E-03  3.901317E-02  5.755798E-02  7.277752E-03
     9.1500  6.587007E-03  3.565637E-02  5.583462E-02  7.504218E-03
     9.6000  6.209640E-03  3.364489E-02  5.055628E-02  7.729663E-03
    10.0500  5.772743E-03  3.214774E-02  4.549100E-02  8.032363E-03
    10.5000  5.641423E-03  3.083018E-02  4.288688E-02  8.510301E-03
    10.9500  5.869525E-03  2.951734E-02  4.269124E-02  9.163449E-03
    11.4000  1.264711E-02  4.956290E-02  6.476737E-02  1.004252E-02
    11.8500  7.493890E-03  2.836764E-02  4.533895E-02  1.071799E-02
    12.3000  8.715317E-03  3.041210E-02  4.772790E-02  1.171556E-02
    12.7500  9.941320E-03  3.390613E-02  5.173147E-02  1.256668E-02
    13.2000  1.083002E-02  3.578295E-02  5.570208E-02  1.277778E-02
    13.6500  1.086295E-02  3.563027E-02  5.865701E-02  1.256633E-02
    14.1000  1.057093E-02  3.538751E-02  6.246864E-02  1.255642E-02
    14.5500  1.057606E-02  3.526190E-02  6.741376E-02  1.291010E-02
    15.0000  1.082820E-02  3.479506E-02  7.367863E-02  1.347951E-02
