#  Fermi level (eV):  -5.846
#  Charge transfer :   0.326
#    Electron counts for each orbital momentum:
#       0      0.617
#       1      0.791
#       2      7.266
#       3      0.000
#  Number of atoms in cluster: 146
#  Lorentzian broadening with HWHH     0.1000 eV
# -----------------------------------------------------------------------
#      e        sDOS           pDOS          dDOS          fDOS    @#
   -30.0000  1.254255E-03  1.224060E-03  1.883278E-03  9.127156E-04
   -29.5500  2.230861E-03  1.622762E-03  2.411333E-03  1.034941E-03
   -29.1000  5.821265E-03  2.513346E-03  3.461697E-03  1.316033E-03
   -28.6500  7.473109E-02  6.266233E-03  7.566455E-03  2.898037E-03
   -28.2000  4.857103E-02  2.670989E-02  2.652523E-02  6.963986E-03
   -27.7500  5.226194E-02  7.830549E-02  1.014964E-01  2.187488E-02
   -27.3000  5.178725E-02  1.267430E-01  2.096103E-01  4.605769E-02
   -26.8500  1.271313E-02  9.047496E-02  1.136160E-01  3.728735E-02
   -26.4000  2.669158E-03  1.245583E-02  1.317312E-02  5.872691E-03
   -25.9500  1.452385E-03  4.127731E-03  5.828659E-03  2.069235E-03
   -25.5000  1.076843E-03  2.505975E-03  4.150500E-03  1.412937E-03
   -25.0500  1.131778E-03  2.435044E-03  4.420851E-03  1.375451E-03
   -24.6000  7.126819E-04  4.429746E-03  1.034384E-02  6.286555E-03
   -24.1500  7.329827E-03  1.436920E-02  2.805228E-02  7.589579E-03
   -23.7000  1.433736E-03  2.139569E-03  4.764365E-03  1.738154E-03
   -23.2500  7.034503E-04  1.156964E-03  3.140157E-03  9.500328E-04
   -22.8000  5.828309E-04  9.491063E-04  2.947246E-03  8.164373E-04
   -22.3500  5.549011E-04  8.702920E-04  3.006036E-03  7.684891E-04
   -21.9000  5.635279E-04  8.410315E-04  3.181964E-03  7.499618E-04
   -21.4500  5.961709E-04  8.391321E-04  3.439448E-03  7.420072E-04
   -21.0000  4.036573E+00 -1.607520E-01  1.965100E-01 -2.859948E-01
   -20.5500  7.353459E-04  9.004897E-04  4.242955E-03  7.531269E-04
   -20.1000  8.570638E-04  9.674612E-04  4.853805E-03  7.748771E-04
   -19.6500  1.037560E-03  1.071572E-03  5.727686E-03  8.269237E-04
   -19.2000  4.986670E-02  2.338168E-02  8.190066E-03  7.156170E-04
   -18.7500  1.724766E-03  1.371163E-03  7.949524E-03  7.300180E-04
   -18.3000  2.785681E-03  2.141593E-03  1.557491E-02  2.187714E-03
   -17.8500  5.172160E-03  4.737527E-03  4.176673E-02  9.211535E-03
   -17.4000 -1.240231E-02 -4.401289E-03 -9.829795E-03 -3.288775E-03
   -16.9500  7.500754E-02  1.180047E-02  1.471012E-01  2.790838E-03
   -16.5000  1.114439E-01  6.064903E-02  4.280387E-01  1.483589E-02
   -16.0500  1.285561E-01  5.746271E-02  5.126400E-01  1.472757E-02
   -15.6000  4.911258E-02  7.579272E-03  6.402822E-02  6.337509E-04
   -15.1500  6.840952E-02  1.180458E-01  7.688806E-01  3.162414E-02
   -14.7000  8.627571E-02  7.402517E-02  6.381849E-01  2.645786E-02
   -14.2500  8.284876E-02  6.917194E-02  5.710569E-01  2.459773E-02
   -13.8000  1.781334E-01  1.545200E-02  8.774667E-02  8.786009E-04
   -13.3500  3.033689E-02  1.288393E-01  3.423976E-01  5.833565E-02
   -12.9000  3.245704E-02  1.476212E-01  3.817943E-01  8.491429E-02
   -12.4500  2.258743E-02  1.728726E-01  2.540219E-01  1.107800E-01
   -12.0000  9.073329E-03  7.340287E-02  1.604480E-01  7.542343E-02
   -11.5500  5.469247E-03  2.218940E-02  9.300423E-02  2.569050E-02
   -11.1000  5.242889E-03  1.260476E-02  9.906217E-02  1.116566E-02
   -10.6500  8.635038E-03  1.331208E-02  1.943301E-01  9.031487E-03
   -10.2000  8.487664E-02  8.047047E-02  1.311241E+00  2.874971E-03
    -9.7500  2.880761E-02  1.724401E-02  1.006563E+00  1.877256E-02
    -9.3000  3.401829E-02  2.811462E-02  1.647231E+00  2.517239E-02
    -8.8500  2.181435E-02  3.174685E-02  2.129529E+00  2.730639E-02
    -8.4000  3.487025E-02  1.254763E-01  3.669174E-01  3.762523E-03
    -7.9500  1.320479E-02  1.171184E-02  9.044041E-01  1.897854E-02
    -7.5000  9.414828E-03  7.699590E-03  1.096523E+00  1.387844E-02
    -7.0500  4.098884E-03  4.724411E-03  2.649139E-01  5.105265E-03
    -6.6000  4.231900E-03  4.945365E-03  1.491001E-01  4.323318E-03
    -6.1500  6.491753E-03  7.568971E-03  2.223718E-01  5.869675E-03
    -5.7000  1.745087E-02  2.348126E-02  8.914901E-01  1.495654E-02
    -5.2500  2.968644E-02  3.225943E-02  9.975133E-01  2.012886E-02
    -4.8000  2.923900E-02  1.195270E-01  1.722980E-01  1.531489E-02
    -4.3500  2.230863E-02  4.664802E-02  8.625244E-01  2.091032E-02
    -3.9000  1.446426E-02  3.583057E-02  5.472349E-01  1.631321E-02
    -3.4500  1.351008E-02  2.930120E-02  3.215051E-01  1.641597E-02
    -3.0000  4.728063E-02  1.072047E-01  1.592723E-01  2.566079E-02
    -2.5500  2.916115E-02  3.238742E-02  1.955648E-01  2.856220E-02
    -2.1000  3.262022E-02  5.027693E-02  1.373079E-01  2.732653E-02
    -1.6500  3.808593E-02  5.236622E-02  1.021213E-01  2.396906E-02
    -1.2000  4.682022E-02  4.833242E-02  8.842035E-02  2.563408E-02
    -0.7500  6.330983E-02  5.100902E-02  8.248334E-02  3.155413E-02
    -0.3000  6.027973E-02  5.057373E-02  7.411329E-02  3.336237E-02
     0.1500  6.303679E-02  4.920516E-02  6.388965E-02  3.402399E-02
     0.6000  4.012588E-02  1.136916E-01  1.168590E-01  4.957909E-02
     1.0500  1.370483E-01  4.880054E-02  7.187446E-02  4.524031E-02
     1.5000  1.938565E-01  5.389071E-02  7.938411E-02  5.008273E-02
     1.9500  1.776942E-01  5.567902E-02  7.295694E-02  4.825074E-02
     2.4000  3.713973E-02  1.147111E-01  1.073977E-01  6.550614E-02
     2.8500  1.728415E-01  7.824229E-02  6.352736E-02  5.541755E-02
     3.3000  1.233857E-01  7.650444E-02  5.673561E-02  6.153134E-02
     3.7500  9.401618E-02  8.547656E-02  5.406667E-02  7.199017E-02
     4.2000  8.098687E-02  1.012298E-01  5.752220E-02  8.925320E-02
     4.6500  6.701381E-02  1.110191E-01  6.444434E-02  1.017873E-01
     5.1000  5.524915E-02  1.156912E-01  6.850986E-02  9.861626E-02
     5.5500  4.874888E-02  1.225505E-01  7.156389E-02  8.924490E-02
     6.0000  3.212190E-02  1.135220E-01  9.921619E-02  1.056695E-01
     6.4500  3.239817E-02  1.409437E-01  6.364189E-02  7.887391E-02
     6.9000  2.825018E-02  1.526518E-01  5.918031E-02  8.233989E-02
     7.3500  2.507498E-02  1.613566E-01  5.591985E-02  8.680230E-02
     7.8000  3.001858E-02  1.117277E-01  9.839569E-02  1.297012E-01
     8.2500  1.959336E-02  1.819133E-01  5.856390E-02  9.601025E-02
     8.7000  1.702154E-02  1.949235E-01  6.374423E-02  1.034801E-01
     9.1500  1.521622E-02  2.011074E-01  6.697578E-02  1.050818E-01
     9.6000  1.435062E-02  1.952764E-01  6.543412E-02  1.003551E-01
    10.0500  1.413954E-02  1.834861E-01  6.282580E-02  9.440375E-02
    10.5000  1.434659E-02  1.725120E-01  6.124910E-02  9.084826E-02
    10.9500  1.479437E-02  1.655843E-01  6.115858E-02  9.093256E-02
    11.4000  2.648169E-02  1.065819E-01  1.004985E-01  1.838079E-01
    11.8500  1.426222E-02  1.621928E-01  6.534532E-02  1.039104E-01
    12.3000  1.298752E-02  1.584970E-01  6.821175E-02  1.200207E-01
    12.7500  1.193601E-02  1.424120E-01  7.191003E-02  1.410789E-01
    13.2000  1.169335E-02  1.276199E-01  7.695899E-02  1.545015E-01
    13.6500  1.223179E-02  1.211061E-01  8.247910E-02  1.615947E-01
    14.1000  1.308632E-02  1.197368E-01  8.629085E-02  1.752667E-01
    14.5500  1.350482E-02  1.192309E-01  8.726937E-02  1.929526E-01
    15.0000  1.346063E-02  1.183545E-01  8.743744E-02  2.107977E-01
