#  Fermi level (eV):  -7.276
#  Charge transfer :  -0.262
#    Electron counts for each orbital momentum:
#       0      1.807
#       1      4.364
#       2      0.092
#       3      0.000
#  Number of atoms in cluster: 133
#  Lorentzian broadening with HWHH     0.1000 eV
# -----------------------------------------------------------------------
#      e        sDOS           pDOS          dDOS          fDOS    @#
   -30.0000  1.065633E-02  6.801731E-04  1.077423E-04  5.641193E-05
   -29.5500  1.886940E-02  7.546446E-04  1.136203E-04  5.818329E-05
   -29.1000  6.750505E-02  9.913812E-04  1.272312E-04  6.151130E-05
   -28.6500  1.026444E-01  2.602837E-03  2.030464E-04  7.501783E-05
   -28.2000  7.805466E-01  1.868903E-03  2.939837E-04  1.292535E-04
   -27.7500  9.251250E-01  4.736336E-03  7.578550E-04  2.693461E-04
   -27.3000  8.253876E-01  4.562677E-03  9.964782E-04  3.868455E-04
   -26.8500  5.216493E-01  1.693882E-03  3.234636E-04  1.091476E-04
   -26.4000  6.336292E-02  1.373351E-03  1.735391E-04  7.613783E-05
   -25.9500  2.888387E-02  1.629214E-03  1.855022E-04  7.746331E-05
   -25.5000  2.681199E-02  2.786036E-03  2.915609E-04  9.961826E-05
   -25.0500  1.155420E-01  1.612041E-02  1.778643E-03  4.071305E-04
   -24.6000  7.970320E-03  1.761010E-03  9.686176E-04  1.208592E-03
   -24.1500  1.694513E-02  4.541265E-03  6.924415E-04  2.623522E-04
   -23.7000  7.411984E-03  2.205227E-03  2.123234E-04  8.803889E-05
   -23.2500  4.755583E-03  2.044269E-03  1.757575E-04  7.644759E-05
   -22.8000  3.483685E-03  2.117032E-03  1.672593E-04  7.383459E-05
   -22.3500  2.726356E-03  2.285472E-03  1.664831E-04  7.350576E-05
   -21.9000  2.222187E-03  2.524091E-03  1.692388E-04  7.416121E-05
   -21.4500  1.864017E-03  2.835624E-03  1.742855E-04  7.541629E-05
   -21.0000  6.370762E-03  2.377332E-02  3.538266E-03 -1.792918E-03
   -20.5500  1.397080E-03  3.754041E-03  1.902718E-04  7.935490E-05
   -20.1000  1.243882E-03  4.448400E-03  2.024007E-04  8.230130E-05
   -19.6500  1.122183E-03  5.388772E-03  2.168130E-04  8.564571E-05
   -19.2000  5.720213E-03  2.888448E-03  1.796341E-04  6.758329E-05
   -18.7500  1.152589E-03  1.025334E-02  3.500227E-04  1.263165E-04
   -18.3000 -1.060745E-02 -7.681821E-02 -4.415601E-03 -3.793986E-04
   -17.8500  1.175845E-03  2.965117E-02  5.269014E-04  1.870840E-04
   -17.4000  2.488802E-03  2.008012E-01  2.834967E-03  6.596337E-04
   -16.9500  7.697466E-03  2.002132E-01  4.730052E-03  1.059771E-03
   -16.5000  7.054644E-03  3.287731E-01  4.439048E-03  1.033860E-03
   -16.0500  1.049645E-02  4.256942E-01  5.981946E-03  1.200146E-03
   -15.6000  4.772339E-02  9.300478E-01  9.293450E-04  9.901433E-05
   -15.1500  1.567141E-02  6.371721E-01  7.673831E-03  1.678639E-03
   -14.7000  1.028482E-02  6.687623E-01  6.067229E-03  1.250741E-03
   -14.2500  1.014386E-02  7.202787E-01  6.105883E-03  1.429948E-03
   -13.8000  1.112928E-02  1.347188E+00  1.264443E-03  1.085216E-04
   -13.3500  6.670327E-03  7.454923E-01  5.784550E-03  1.565828E-03
   -12.9000  5.078778E-03  1.412493E+00  5.267030E-03  1.453690E-03
   -12.4500  3.831597E-03  9.270782E-01  3.837637E-03  1.016044E-03
   -12.0000  2.026991E-03  4.254439E-01  2.231795E-03  6.507625E-04
   -11.5500  1.412900E-03  1.502457E-01  2.367836E-03  6.628202E-04
   -11.1000  1.604851E-03  9.944595E-02  4.772119E-03  1.246840E-03
   -10.6500  2.204975E-03  1.564354E-01  1.417565E-02  3.732695E-03
   -10.2000  4.772932E-03  2.578096E-01  5.747932E-03  2.896561E-04
    -9.7500  4.357451E-03  1.911714E-01  1.754455E-02  4.787816E-03
    -9.3000  4.196448E-03  2.386321E-01  1.604930E-02  7.715736E-03
    -8.8500  3.980136E-03  2.310520E-01  1.073915E-02  5.627108E-03
    -8.4000  4.841788E-03  1.162759E-01  6.476791E-03  5.351444E-04
    -7.9500  4.308507E-03  1.105275E-01  5.692209E-03  2.827262E-03
    -7.5000  4.272586E-03  7.327613E-02  4.206923E-03  2.018670E-03
    -7.0500  5.555032E-03  3.548989E-02  4.335380E-03  1.039575E-03
    -6.6000  1.053832E-02  3.529429E-02  7.058312E-03  1.233489E-03
    -6.1500  3.264295E-02  6.785859E-02  1.927236E-02  3.126532E-03
    -5.7000  4.797099E-02  1.505403E-01  3.871570E-02  5.793292E-03
    -5.2500  4.321891E-02  1.494440E-01  3.056837E-02  4.260653E-03
    -4.8000  1.525592E-02  8.891864E-02  1.792993E-02  1.454712E-03
    -4.3500  4.828322E-02  1.565724E-01  2.740688E-02  4.345179E-03
    -3.9000  2.914846E-02  1.145540E-01  1.831987E-02  3.295764E-03
    -3.4500  1.810460E-02  1.184663E-01  1.457864E-02  2.981212E-03
    -3.0000  1.249812E-02  9.429487E-02  2.213742E-02  2.037011E-03
    -2.5500  1.780722E-02  1.022625E-01  1.439777E-02  2.396167E-03
    -2.1000  2.578646E-02  1.149876E-01  1.669855E-02  2.684854E-03
    -1.6500  2.941695E-02  1.194113E-01  1.984884E-02  2.514364E-03
    -1.2000  2.437269E-02  1.299836E-01  2.045760E-02  2.416396E-03
    -0.7500  1.523262E-02  1.196471E-01  2.037989E-02  2.595016E-03
    -0.3000  1.089104E-02  1.030553E-01  2.103661E-02  2.522808E-03
     0.1500  1.062025E-02  9.594223E-02  2.238754E-02  2.509079E-03
     0.6000  1.282501E-02  7.322871E-02  3.427811E-02  3.797896E-03
     1.0500  1.320473E-02  1.259369E-01  3.039730E-02  2.768294E-03
     1.5000  1.140087E-02  1.296162E-01  3.332645E-02  2.940635E-03
     1.9500  9.278398E-03  1.251686E-01  3.737749E-02  3.268161E-03
     2.4000  1.302996E-02  6.684945E-02  4.107972E-02  4.954542E-03
     2.8500  6.430610E-03  1.014495E-01  4.623866E-02  3.668969E-03
     3.3000  6.043950E-03  8.577276E-02  5.008375E-02  3.812760E-03
     3.7500  5.949597E-03  7.442972E-02  5.245772E-02  4.191154E-03
     4.2000  6.066512E-03  7.046519E-02  5.694849E-02  4.931968E-03
     4.6500  6.375351E-03  6.929264E-02  6.133725E-02  5.641468E-03
     5.1000  6.255632E-03  6.750539E-02  6.093126E-02  5.892711E-03
     5.5500  5.642779E-03  6.381663E-02  5.872409E-02  6.043794E-03
     6.0000  1.350512E-02  5.879802E-02  5.569378E-02  7.860460E-03
     6.4500  5.252922E-03  4.881526E-02  6.005589E-02  6.184112E-03
     6.9000  5.427763E-03  4.363051E-02  6.327404E-02  6.431346E-03
     7.3500  5.632502E-03  4.050687E-02  6.693529E-02  6.932535E-03
     7.8000  1.376664E-02  5.637286E-02  6.330213E-02  9.618506E-03
     8.2500  5.624986E-03  3.749244E-02  6.992113E-02  8.298253E-03
     8.7000  5.318161E-03  3.631627E-02  6.700819E-02  9.020614E-03
     9.1500  4.954879E-03  3.470211E-02  6.360755E-02  9.789608E-03
     9.6000  4.730163E-03  3.297506E-02  6.159672E-02  1.047121E-02
    10.0500  4.728742E-03  3.177977E-02  6.025665E-02  1.093584E-02
    10.5000  4.871424E-03  3.164810E-02  5.881234E-02  1.133894E-02
    10.9500  5.121896E-03  3.247678E-02  5.814888E-02  1.184233E-02
    11.4000  1.431577E-02  5.359392E-02  7.858030E-02  1.374917E-02
    11.8500  6.501697E-03  3.542943E-02  5.961469E-02  1.285407E-02
    12.3000  7.813354E-03  3.693474E-02  6.188919E-02  1.356744E-02
    12.7500  9.513118E-03  3.863976E-02  6.655761E-02  1.487163E-02
    13.2000  1.140349E-02  4.059538E-02  7.399190E-02  1.660986E-02
    13.6500  1.323355E-02  4.245355E-02  8.340619E-02  1.794480E-02
    14.1000  1.497542E-02  4.363215E-02  9.226065E-02  1.854806E-02
    14.5500  1.672235E-02  4.323591E-02  9.644718E-02  1.880492E-02
    15.0000  1.835386E-02  4.175101E-02  9.864484E-02  1.931550E-02
