#  Fermi level (eV):  -7.435
#  Charge transfer :  -0.153
#    Electron counts for each orbital momentum:
#       0      1.769
#       1      4.259
#       2      0.125
#       3      0.000
#  Number of atoms in cluster: 113
#  Lorentzian broadening with HWHH     0.1000 eV
# -----------------------------------------------------------------------
#      e        sDOS           pDOS          dDOS          fDOS    @#
   -30.0000  1.419703E-02  6.896328E-04  1.150486E-04  5.348275E-05
   -29.5500  2.595569E-02  7.575973E-04  1.352639E-04  5.677232E-05
   -29.1000  6.965444E-02  8.898595E-04  2.074093E-04  6.602695E-05
   -28.6500  9.469804E-01  1.799352E-03  1.610619E-03  1.999923E-04
   -28.2000  8.671590E-01  3.569081E-03  1.639312E-03  2.963071E-04
   -27.7500  7.867503E-01  3.958450E-03  1.033349E-03  2.746353E-04
   -27.3000  8.806654E-01  4.642534E-03  6.935029E-04  4.132488E-04
   -26.8500  1.350968E-01  1.480077E-03  2.815291E-04  1.208825E-04
   -26.4000  3.646765E-02  1.269490E-03  1.609034E-04  7.153458E-05
   -25.9500  1.854456E-02  1.364962E-03  1.506793E-04  6.613625E-05
   -25.5000  1.237682E-02  1.648838E-03  1.644456E-04  6.763368E-05
   -25.0500  1.231938E-02  2.941363E-03  2.467561E-04  8.351401E-05
   -24.6000  6.554279E-03  3.100837E-03  1.402980E-03  2.407733E-03
   -24.1500  3.874763E-02  6.307669E-03  1.098479E-03  1.946170E-04
   -23.7000  6.814869E-03  2.305248E-03  2.257204E-04  7.745516E-05
   -23.2500  3.878717E-03  2.151085E-03  1.680063E-04  7.034069E-05
   -22.8000  2.820640E-03  2.277044E-03  1.571028E-04  7.010331E-05
   -22.3500  2.231607E-03  2.503313E-03  1.557504E-04  7.136979E-05
   -21.9000  1.843513E-03  2.810700E-03  1.581105E-04  7.353837E-05
   -21.4500  1.564912E-03  3.206352E-03  1.625311E-04  7.634470E-05
   -21.0000 -2.497918E-03  2.594060E-02  1.440648E-02 -8.579085E-03
   -20.5500  1.192183E-03  4.379887E-03  1.759330E-04  8.420159E-05
   -20.1000  1.065849E-03  5.297536E-03  1.856705E-04  9.085001E-05
   -19.6500  9.633777E-04  6.541430E-03  1.968384E-04  9.827769E-05
   -19.2000  5.735468E-03 -7.228482E-03  3.681723E-04  5.163292E-05
   -18.7500  8.865803E-04  1.339029E-02  2.562764E-04  1.990805E-04
   -18.3000  1.172814E-03  2.916933E-02  6.539690E-04  7.708338E-04
   -17.8500 -7.654611E-04 -6.806534E-02 -6.662940E-03 -3.832587E-03
   -17.4000  9.701235E-04  8.924898E-02  4.761679E-04  6.909646E-04
   -16.9500  2.318158E-03  9.847593E-01  1.819373E-03  6.794710E-03
   -16.5000  3.992122E-03  4.896768E-01  2.840556E-03  3.806618E-03
   -16.0500  1.298033E-02  4.142321E-01  5.331172E-03  2.104008E-03
   -15.6000  2.360655E-02  3.485447E-01  6.197738E-04  7.355511E-05
   -15.1500  6.872914E-03  9.315433E-01  5.406143E-03  4.121537E-03
   -14.7000  7.717624E-03  7.547486E-01  5.913607E-03  3.292993E-03
   -14.2500  8.396562E-03  6.314297E-01  7.999929E-03  2.355595E-03
   -13.8000  1.196703E-02  1.226708E+00  9.736272E-04  9.745182E-05
   -13.3500  6.777730E-03  7.432611E-01  7.464796E-03  1.325840E-03
   -12.9000  6.024442E-03  7.312133E-01  9.283124E-03  1.653220E-03
   -12.4500  4.349260E-03  4.649914E-01  6.977464E-03  1.679245E-03
   -12.0000  4.999691E-03  3.173198E-01  5.885041E-03  1.464164E-03
   -11.5500  3.220286E-03  1.194978E-01  6.792661E-03  1.817683E-03
   -11.1000  2.317784E-03  8.974665E-02  9.212248E-03  1.580796E-03
   -10.6500  1.962577E-03  8.462015E-02  1.368730E-02  1.635147E-03
   -10.2000  9.478566E-03  3.055900E-01  3.483625E-03  2.198834E-04
    -9.7500  2.554234E-03  1.879205E-01  3.327313E-02  3.450781E-03
    -9.3000  2.319801E-03  1.441327E-01  1.911593E-02  3.105122E-03
    -8.8500  3.216684E-03  1.189417E-01  1.803518E-02  3.875936E-03
    -8.4000  7.929836E-03  1.352131E-01  5.881709E-03  3.897718E-04
    -7.9500  9.116926E-03  1.852950E-01  2.316269E-02  7.724769E-03
    -7.5000  9.619818E-03  3.760092E-01  1.551874E-02  1.437116E-02
    -7.0500  6.715029E-03  3.572483E-01  1.074786E-02  1.276583E-02
    -6.6000  5.323178E-03  1.353257E-01  5.830804E-03  4.755022E-03
    -6.1500  8.308534E-03  5.489868E-02  4.593647E-03  1.981992E-03
    -5.7000  1.849330E-02  4.651949E-02  6.017769E-03  1.802522E-03
    -5.2500  2.281547E-02  5.597429E-02  1.015640E-02  1.990285E-03
    -4.8000  8.241478E-03  9.735692E-02  1.339476E-02  8.821147E-04
    -4.3500  3.838553E-02  7.516740E-02  3.109262E-02  3.417377E-03
    -3.9000  3.657525E-02  7.513298E-02  2.230750E-02  3.561520E-03
    -3.4500  4.040029E-02  8.573579E-02  2.007438E-02  3.641321E-03
    -3.0000  1.120745E-02  8.959888E-02  1.635957E-02  1.352361E-03
    -2.5500  3.585701E-02  1.054217E-01  2.033329E-02  3.190550E-03
    -2.1000  2.331177E-02  1.221470E-01  2.335279E-02  3.726007E-03
    -1.6500  1.806269E-02  1.330629E-01  2.584619E-02  4.340542E-03
    -1.2000  1.456468E-02  1.226404E-01  2.364837E-02  4.553584E-03
    -0.7500  1.165355E-02  1.033346E-01  2.054737E-02  4.055508E-03
    -0.3000  1.010884E-02  9.034655E-02  1.959664E-02  3.551579E-03
     0.1500  1.094828E-02  8.672410E-02  2.120598E-02  3.546243E-03
     0.6000  1.131309E-02  6.905176E-02  2.586025E-02  2.556510E-03
     1.0500  1.206152E-02  8.198484E-02  2.534025E-02  4.018659E-03
     1.5000  1.134010E-02  8.172029E-02  2.601670E-02  4.128981E-03
     1.9500  1.230669E-02  8.237709E-02  2.758299E-02  4.014961E-03
     2.4000  1.140727E-02  6.266770E-02  3.130455E-02  3.357913E-03
     2.8500  1.469562E-02  9.417005E-02  3.175476E-02  3.914485E-03
     3.3000  1.382953E-02  9.985335E-02  3.425204E-02  4.097970E-03
     3.7500  1.133225E-02  9.945953E-02  3.539760E-02  4.466711E-03
     4.2000  9.566098E-03  8.548212E-02  3.522198E-02  4.622411E-03
     4.6500  9.114776E-03  7.676774E-02  3.471661E-02  4.678793E-03
     5.1000  9.273251E-03  7.225405E-02  3.484419E-02  4.762517E-03
     5.5500  9.506385E-03  6.784825E-02  3.625723E-02  4.877269E-03
     6.0000  1.167100E-02  5.429682E-02  4.331412E-02  5.397260E-03
     6.4500  1.012999E-02  6.238693E-02  4.154987E-02  5.336597E-03
     6.9000  9.883427E-03  5.991012E-02  4.356226E-02  5.636061E-03
     7.3500  9.664414E-03  5.661049E-02  4.468727E-02  5.933923E-03
     7.8000  1.183518E-02  5.161438E-02  4.975033E-02  6.645680E-03
     8.2500  9.426666E-03  4.997670E-02  4.720990E-02  6.528819E-03
     8.7000  9.572715E-03  4.802034E-02  4.941569E-02  6.845097E-03
     9.1500  9.524257E-03  4.714070E-02  5.191107E-02  7.247678E-03
     9.6000  9.254657E-03  4.615283E-02  5.415718E-02  7.672164E-03
    10.0500  8.895141E-03  4.414750E-02  5.611550E-02  8.062202E-03
    10.5000  8.622450E-03  4.128161E-02  5.789387E-02  8.530290E-03
    10.9500  8.557976E-03  3.870447E-02  5.950549E-02  9.170294E-03
    11.4000  1.221285E-02  4.822772E-02  6.311742E-02  9.614798E-03
    11.8500  8.780411E-03  3.578208E-02  6.104181E-02  1.040377E-02
    12.3000  9.087468E-03  3.510072E-02  6.165185E-02  1.089665E-02
    12.7500  9.433111E-03  3.498405E-02  6.274345E-02  1.130751E-02
    13.2000  9.613526E-03  3.546503E-02  6.484465E-02  1.159382E-02
    13.6500  9.576723E-03  3.650210E-02  6.849757E-02  1.178918E-02
    14.1000  9.436124E-03  3.806781E-02  7.346032E-02  1.196687E-02
    14.5500  9.306487E-03  4.015176E-02  7.863455E-02  1.217014E-02
    15.0000  9.284340E-03  4.261895E-02  8.290223E-02  1.246945E-02
