#  Fermi level (eV):  -7.452
#  Charge transfer :  -0.204
#    Electron counts for each orbital momentum:
#       0      1.829
#       1      4.270
#       2      0.106
#       3      0.000
#  Number of atoms in cluster: 119
#  Lorentzian broadening with HWHH     0.1000 eV
# -----------------------------------------------------------------------
#      e        sDOS           pDOS          dDOS          fDOS    @#
   -30.0000  8.926950E-03  6.518445E-04  1.050909E-04  5.709359E-05
   -29.5500  1.369376E-02  6.984318E-04  1.089004E-04  5.901869E-05
   -29.1000  2.445636E-02  7.643328E-04  1.148518E-04  6.253075E-05
   -28.6500  6.984902E-02  9.405015E-04  1.323248E-04  7.469181E-05
   -28.2000  2.496832E-01  1.841646E-03  2.410238E-04  1.533537E-04
   -27.7500  5.877906E-01  2.303849E-03  3.127586E-04  2.018549E-04
   -27.3000  2.272921E+00  3.275361E-03  7.459923E-04  5.658812E-04
   -26.8500  2.465018E-01  1.469572E-03  2.216983E-04  1.180980E-04
   -26.4000  5.572459E-02  1.221350E-03  1.542532E-04  7.657665E-05
   -25.9500  2.628489E-02  1.353058E-03  1.603566E-04  7.327389E-05
   -25.5000  1.715666E-02  1.681481E-03  1.930611E-04  7.822662E-05
   -25.0500  1.796560E-02  2.860447E-03  3.349001E-04  1.054581E-04
   -24.6000  1.034944E-01  1.958107E-02  2.388032E-03  4.865083E-04
   -24.1500  7.179858E-02  1.285520E-02  1.607612E-03  3.932147E-04
   -23.7000  1.126741E-02  2.885522E-03  3.022394E-04  1.017740E-04
   -23.2500  5.672447E-03  2.209442E-03  2.005735E-04  8.046684E-05
   -22.8000  3.827813E-03  2.167971E-03  1.770786E-04  7.607375E-05
   -22.3500  2.888572E-03  2.291073E-03  1.705604E-04  7.522594E-05
   -21.9000  2.308810E-03  2.501502E-03  1.702873E-04  7.571411E-05
   -21.4500  1.912289E-03  2.785520E-03  1.731233E-04  7.689529E-05
   -21.0000  1.623979E-03  3.150022E-03  1.779933E-04  7.856202E-05
   -20.5500  1.406289E-03  3.616081E-03  1.846131E-04  8.069442E-05
   -20.1000  1.237368E-03  4.215324E-03  1.927853E-04  8.323839E-05
   -19.6500  1.106326E-03  5.013591E-03  2.037316E-04  8.673221E-05
   -19.2000  1.001073E-03  6.082768E-03  2.157548E-04  9.030721E-05
   -18.7500  9.140932E-04  7.549900E-03  2.271923E-04  9.300500E-05
   -18.3000  9.193057E-04  1.056246E-02  2.950708E-04  1.308411E-04
   -17.8500  1.520404E-04 -2.378285E-03 -3.456151E-04 -1.974673E-04
   -17.4000  7.078889E-04  8.724822E-03 -4.894206E-04 -2.983698E-04
   -16.9500  2.390249E-03  9.476953E-02  9.877399E-04  3.459508E-04
   -16.5000  3.064267E-03  1.708366E-01  2.437128E-03  9.791289E-04
   -16.0500  3.648155E-03  4.171721E-01  3.588096E-03  1.163346E-03
   -15.6000  5.736177E-03  1.119027E+00  6.192552E-03  1.945392E-03
   -15.1500  7.256349E-03  1.214138E+00  6.956059E-03  2.286089E-03
   -14.7000  1.059065E-02  8.844730E-01  6.702053E-03  2.085640E-03
   -14.2500  9.275012E-03  7.271649E-01  6.508060E-03  2.043800E-03
   -13.8000  7.651054E-03  6.302355E-01  5.754961E-03  1.989653E-03
   -13.3500  7.630327E-03  8.883392E-01  6.281986E-03  2.069097E-03
   -12.9000  4.435189E-03  5.290672E-01  5.228571E-03  1.526845E-03
   -12.4500  5.333777E-03  6.230368E-01  4.795190E-03  1.326907E-03
   -12.0000  5.710143E-03  4.313834E-01  5.678081E-03  1.541689E-03
   -11.5500  5.815095E-03  2.306726E-01  7.721780E-03  2.304938E-03
   -11.1000  4.315374E-03  1.395515E-01  1.169070E-02  2.920301E-03
   -10.6500  4.843945E-03  1.414204E-01  2.058408E-02  5.142163E-03
   -10.2000  6.258075E-03  2.112514E-01  2.387651E-02  4.602584E-03
    -9.7500  8.932484E-03  2.561440E-01  2.847547E-02  5.217293E-03
    -9.3000  1.448172E-02  1.581005E-01  2.058711E-02  6.171734E-03
    -8.8500  1.431147E-02  1.581187E-01  1.569003E-02  5.797991E-03
    -8.4000  1.621434E-02  1.606709E-01  1.308878E-02  5.817329E-03
    -7.9500  2.119723E-02  2.031244E-01  1.596517E-02  5.176549E-03
    -7.5000  2.132333E-02  2.359007E-01  1.760737E-02  5.814160E-03
    -7.0500  1.485108E-02  2.095019E-01  1.124466E-02  4.552303E-03
    -6.6000  1.558015E-02  1.756559E-01  9.962363E-03  2.944089E-03
    -6.1500  2.300046E-02  1.317484E-01  1.203235E-02  2.688942E-03
    -5.7000  2.242047E-02  9.900106E-02  1.318726E-02  2.472041E-03
    -5.2500  1.762462E-02  8.982490E-02  1.424812E-02  2.462902E-03
    -4.8000  1.604580E-02  1.050745E-01  1.768824E-02  2.900253E-03
    -4.3500  1.967936E-02  1.435114E-01  2.038579E-02  3.746779E-03
    -3.9000  2.570118E-02  1.471023E-01  2.263866E-02  3.887138E-03
    -3.4500  2.612726E-02  1.442197E-01  2.398228E-02  3.869616E-03
    -3.0000  1.989805E-02  1.348097E-01  2.467979E-02  3.919125E-03
    -2.5500  1.535347E-02  1.218869E-01  2.608667E-02  3.885334E-03
    -2.1000  2.072907E-02  1.168634E-01  2.533383E-02  3.866626E-03
    -1.6500  2.397380E-02  1.124681E-01  2.621217E-02  4.175962E-03
    -1.2000  2.103144E-02  1.075354E-01  2.530154E-02  4.078998E-03
    -0.7500  1.874845E-02  9.420376E-02  2.217392E-02  3.628803E-03
    -0.3000  1.617988E-02  7.779543E-02  2.052217E-02  3.363121E-03
     0.1500  1.403969E-02  7.686568E-02  2.186512E-02  3.412518E-03
     0.6000  1.345810E-02  8.013354E-02  2.468555E-02  3.706251E-03
     1.0500  1.313364E-02  7.769142E-02  2.688923E-02  4.067609E-03
     1.5000  1.240656E-02  7.960161E-02  3.004585E-02  4.214394E-03
     1.9500  1.199727E-02  8.431058E-02  3.391674E-02  4.437002E-03
     2.4000  1.183275E-02  8.648536E-02  3.639756E-02  4.776104E-03
     2.8500  1.164991E-02  8.527448E-02  3.644518E-02  5.001834E-03
     3.3000  1.160508E-02  7.880254E-02  3.559115E-02  5.023481E-03
     3.7500  1.062290E-02  6.796274E-02  3.657381E-02  5.065092E-03
     4.2000  9.757931E-03  6.082869E-02  3.888498E-02  5.205552E-03
     4.6500  8.962073E-03  5.733989E-02  3.950946E-02  5.305091E-03
     5.1000  8.215486E-03  5.494351E-02  3.905624E-02  5.397862E-03
     5.5500  7.939290E-03  5.371397E-02  3.932599E-02  5.602488E-03
     6.0000  8.301574E-03  5.492193E-02  4.068544E-02  5.989408E-03
     6.4500  9.296222E-03  5.827311E-02  4.354214E-02  6.478457E-03
     6.9000  1.047749E-02  6.093895E-02  4.844622E-02  6.939287E-03
     7.3500  1.128363E-02  6.079999E-02  5.389384E-02  7.403130E-03
     7.8000  1.156707E-02  5.854838E-02  5.758864E-02  7.873644E-03
     8.2500  1.157622E-02  5.613300E-02  6.030216E-02  8.319748E-03
     8.7000  1.167120E-02  5.502988E-02  6.472802E-02  8.894377E-03
     9.1500  1.182250E-02  5.473491E-02  7.227339E-02  9.608317E-03
     9.6000  1.160982E-02  5.459161E-02  8.003456E-02  1.013121E-02
    10.0500  1.131887E-02  5.479270E-02  8.389741E-02  1.040625E-02
    10.5000  1.135323E-02  5.519397E-02  8.477837E-02  1.071710E-02
    10.9500  1.127478E-02  5.470836E-02  8.512883E-02  1.115499E-02
    11.4000  1.092646E-02  5.275015E-02  8.558526E-02  1.164997E-02
    11.8500  1.060793E-02  5.010397E-02  8.530020E-02  1.215674E-02
    12.3000  1.043182E-02  4.725901E-02  8.425238E-02  1.264391E-02
    12.7500  1.038433E-02  4.425521E-02  8.262869E-02  1.308735E-02
    13.2000  1.039783E-02  4.134680E-02  8.114476E-02  1.350140E-02
    13.6500  1.038725E-02  3.876781E-02  8.097452E-02  1.401186E-02
    14.1000  1.034137E-02  3.678259E-02  8.191203E-02  1.471755E-02
    14.5500  1.035261E-02  3.562967E-02  8.308041E-02  1.558363E-02
    15.0000  1.052097E-02  3.545891E-02  8.415484E-02  1.654373E-02
