#  Fermi level (eV):  -7.452
#  Charge transfer :   0.213
#    Electron counts for each orbital momentum:
#       0      0.731
#       1      0.781
#       2      7.276
#       3      0.000
#  Number of atoms in cluster: 114
#  Lorentzian broadening with HWHH     0.1000 eV
# -----------------------------------------------------------------------
#      e        sDOS           pDOS          dDOS          fDOS    @#
   -30.0000  1.132998E-03  1.199679E-03  2.322560E-03  9.675097E-04
   -29.5500  1.885698E-03  1.586905E-03  3.280190E-03  1.132364E-03
   -29.1000  4.084121E-03  2.437668E-03  5.786377E-03  1.516829E-03
   -28.6500  1.990367E-02  5.587940E-03  2.140178E-02  3.190552E-03
   -28.2000  5.615281E-02  3.880833E-02  7.202725E-02  1.634904E-02
   -27.7500  7.350716E-02  4.509366E-02  8.079294E-02  1.934981E-02
   -27.3000  3.199075E-02  1.909793E-01  2.061352E-01  7.395435E-02
   -26.8500  5.730587E-03  7.128032E-02  3.001801E-02  3.018187E-02
   -26.4000  2.141461E-03  8.209796E-03  7.704926E-03  3.799174E-03
   -25.9500  1.314530E-03  3.541648E-03  4.575473E-03  1.905615E-03
   -25.5000  1.016350E-03  2.297435E-03  3.782488E-03  1.437921E-03
   -25.0500  1.107798E-03  2.260328E-03  4.628824E-03  1.567408E-03
   -24.6000  1.078527E-03  6.425719E-03  1.128591E-02  8.255622E-03
   -24.1500  3.020154E-03  6.170567E-03  1.297651E-02  4.739270E-03
   -23.7000  7.967267E-04  1.460198E-03  3.763959E-03  1.226832E-03
   -23.2500  5.988522E-04  1.027269E-03  3.048100E-03  9.098060E-04
   -22.8000  5.499075E-04  8.934205E-04  2.972804E-03  8.156988E-04
   -22.3500  5.443353E-04  8.357307E-04  3.067750E-03  7.724865E-04
   -21.9000  5.634884E-04  8.154272E-04  3.270064E-03  7.577785E-04
   -21.4500  6.020294E-04  8.164634E-04  3.549480E-03  7.522340E-04
   -21.0000  1.809545E-01 -1.652857E-02  2.756628E-01 -1.793273E-01
   -20.5500  7.480710E-04  8.748113E-04  4.408752E-03  7.733409E-04
   -20.1000  8.656756E-04  9.230667E-04  4.973357E-03  7.664635E-04
   -19.6500  1.049808E-03  1.017904E-03  5.915157E-03  8.381050E-04
   -19.2000 -2.591573E-02  1.510234E-02  7.390054E-03  6.257930E-04
   -18.7500  1.620797E-03  1.127597E-03  7.057475E-03  4.010551E-04
   -18.3000  3.403090E-03  2.459042E-03  2.169526E-02  3.687046E-03
   -17.8500 -3.415638E-03 -1.569236E-02 -6.573794E-02 -5.509723E-02
   -17.4000  6.190213E-03  1.166846E-03  2.426733E-02  4.987102E-04
   -16.9500  8.294184E-02  7.199014E-03  1.955384E-01  4.832414E-03
   -16.5000  1.076859E-01  2.419520E-02  3.405233E-01  8.704108E-03
   -16.0500  3.662920E-02  7.438788E-02  2.971681E-01  2.524773E-02
   -15.6000  2.472682E-02  1.513643E-02  2.979919E-02  6.499547E-04
   -15.1500  1.216542E-01  7.194179E-02  5.882456E-01  2.682579E-02
   -14.7000  1.221075E-01  6.693367E-02  6.666923E-01  2.499105E-02
   -14.2500  6.027657E-02  9.105768E-02  6.544217E-01  3.341267E-02
   -13.8000  9.161314E-02  2.132221E-02  2.135680E-01  9.554271E-04
   -13.3500  3.063115E-02  1.793696E-01  3.749436E-01  7.334085E-02
   -12.9000  2.168024E-02  1.217749E-01  3.452704E-01  6.412955E-02
   -12.4500  2.050366E-02  7.179913E-02  3.364040E-01  4.946428E-02
   -12.0000  2.693418E-02  5.680047E-02  2.887671E-01  4.299716E-02
   -11.5500  4.599063E-02  6.277766E-02  4.602174E-01  3.234486E-02
   -11.1000  4.343241E-02  2.768711E-02  5.448238E-01  1.244091E-02
   -10.6500  8.907333E-02  3.218934E-02  1.348886E+00  1.478650E-02
   -10.2000  1.171410E-01  5.756606E-02  1.261014E+00  3.318200E-03
    -9.7500  4.001378E-02  3.303823E-02  1.389896E+00  1.846560E-02
    -9.3000  4.162105E-02  3.793731E-02  1.267101E+00  1.501272E-02
    -8.8500  7.247118E-02  4.641638E-02  1.158332E+00  1.780615E-02
    -8.4000  6.473451E-02  9.408257E-02  4.809863E-01  6.251964E-03
    -7.9500  3.888168E-02  4.986763E-02  7.622318E-01  2.838705E-02
    -7.5000  3.103333E-02  5.212267E-02  1.120115E+00  2.422628E-02
    -7.0500  2.419556E-02  5.083605E-02  9.861241E-01  2.157882E-02
    -6.6000  2.307032E-02  4.336692E-02  3.831131E-01  1.777462E-02
    -6.1500  2.796796E-02  5.264004E-02  3.199620E-01  1.864433E-02
    -5.7000  2.516943E-02  5.591873E-02  2.877760E-01  1.666441E-02
    -5.2500  1.785276E-02  6.397677E-02  2.299655E-01  1.662334E-02
    -4.8000  5.599354E-02  1.025920E-01  1.605878E-01  1.424367E-02
    -4.3500  2.502497E-02  9.585218E-02  2.237071E-01  2.846016E-02
    -3.9000  3.609086E-02  8.928265E-02  2.280710E-01  3.255838E-02
    -3.4500  2.739105E-02  7.918208E-02  2.282171E-01  3.343300E-02
    -3.0000  4.843653E-02  1.069857E-01  1.520394E-01  2.620508E-02
    -2.5500  2.557803E-02  5.895182E-02  2.242835E-01  3.279908E-02
    -2.1000  2.707700E-02  6.018998E-02  2.347399E-01  3.419728E-02
    -1.6500  3.073973E-02  5.921180E-02  2.136154E-01  3.639773E-02
    -1.2000  3.463074E-02  5.680677E-02  2.039762E-01  3.680879E-02
    -0.7500  3.055440E-02  5.402530E-02  2.139367E-01  3.702489E-02
    -0.3000  2.473743E-02  5.359260E-02  1.701432E-01  3.712837E-02
     0.1500  3.074665E-02  5.845927E-02  1.512596E-01  4.049807E-02
     0.6000  4.104906E-02  1.142194E-01  1.128425E-01  5.008810E-02
     1.0500  6.268834E-02  7.017019E-02  1.449387E-01  4.789259E-02
     1.5000  7.113529E-02  7.060661E-02  1.352792E-01  5.003759E-02
     1.9500  8.042037E-02  7.575144E-02  1.263300E-01  5.433890E-02
     2.4000  3.793927E-02  1.156039E-01  1.042275E-01  6.589684E-02
     2.8500  7.561180E-02  8.891061E-02  1.127122E-01  6.469866E-02
     3.3000  7.033643E-02  9.323794E-02  1.080377E-01  6.925616E-02
     3.7500  7.150644E-02  9.812424E-02  1.056127E-01  7.537793E-02
     4.2000  7.186955E-02  1.050670E-01  9.550052E-02  8.058396E-02
     4.6500  6.589831E-02  1.075074E-01  8.191842E-02  8.235730E-02
     5.1000  6.065166E-02  1.028167E-01  7.402091E-02  8.301577E-02
     5.5500  5.760387E-02  9.741245E-02  7.209068E-02  8.516220E-02
     6.0000  3.269463E-02  1.150072E-01  9.712589E-02  1.056449E-01
     6.4500  5.294048E-02  1.000430E-01  7.477354E-02  9.872671E-02
     6.9000  4.903884E-02  1.066414E-01  7.615232E-02  1.075023E-01
     7.3500  4.496629E-02  1.139082E-01  7.759779E-02  1.138806E-01
     7.8000  3.049351E-02  1.134194E-01  9.666575E-02  1.294378E-01
     8.2500  3.778012E-02  1.247912E-01  7.731958E-02  1.258742E-01
     8.7000  3.401475E-02  1.294601E-01  7.788975E-02  1.373739E-01
     9.1500  3.058110E-02  1.342449E-01  7.972035E-02  1.498555E-01
     9.6000  2.818832E-02  1.345762E-01  8.175261E-02  1.564823E-01
    10.0500  2.708747E-02  1.311636E-01  8.359933E-02  1.577874E-01
    10.5000  2.697118E-02  1.285329E-01  8.547206E-02  1.588025E-01
    10.9500  2.731460E-02  1.271451E-01  8.744865E-02  1.617991E-01
    11.4000  2.679545E-02  1.085023E-01  9.928478E-02  1.832980E-01
    11.8500  2.724729E-02  1.217655E-01  9.017002E-02  1.709641E-01
    12.3000  2.637805E-02  1.196361E-01  8.954716E-02  1.755301E-01
    12.7500  2.524780E-02  1.186530E-01  8.688052E-02  1.795501E-01
    13.2000  2.452235E-02  1.179298E-01  8.379891E-02  1.819320E-01
    13.6500  2.450075E-02  1.166952E-01  8.240806E-02  1.833171E-01
    14.1000  2.485603E-02  1.139580E-01  8.286454E-02  1.849407E-01
    14.5500  2.512358E-02  1.093497E-01  8.396590E-02  1.872591E-01
    15.0000  2.532660E-02  1.040815E-01  8.485770E-02  1.907431E-01
