#  Fermi level (eV):  -7.821
#  Charge transfer :   0.450
#    Electron counts for each orbital momentum:
#       0      0.676
#       1      0.830
#       2      7.044
#       3      0.000
#  Number of atoms in cluster: 102
#  Lorentzian broadening with HWHH     0.1000 eV
# -----------------------------------------------------------------------
#      e        sDOS           pDOS          dDOS          fDOS    @#
   -30.0000  1.281979E-03  1.321696E-03  2.397921E-03  1.028434E-03
   -29.5500  2.099622E-03  1.774239E-03  3.230879E-03  1.257767E-03
   -29.1000  4.278190E-03  2.732948E-03  5.049391E-03  1.805239E-03
   -28.6500  1.481324E-02  5.758782E-03  1.142777E-02  4.019066E-03
   -28.2000  1.979432E-01  3.353936E-02  1.004569E-01  3.270396E-02
   -27.7500  6.970480E-02  8.869636E-02  1.428893E-01  3.317664E-02
   -27.3000  2.335915E-02  2.074278E-01  1.865826E-01  6.547562E-02
   -26.8500  6.585757E-03  4.745171E-02  6.007160E-02  1.526043E-02
   -26.4000  2.459450E-03  8.329254E-03  1.178986E-02  3.287808E-03
   -25.9500  1.568111E-03  3.845925E-03  6.256538E-03  1.849078E-03
   -25.5000  1.330703E-03  2.620314E-03  4.978879E-03  1.515973E-03
   -25.0500  1.882752E-03  2.948522E-03  6.627476E-03  2.007909E-03
   -24.6000  1.185706E-03  6.304967E-03  1.469740E-02  9.698892E-03
   -24.1500  1.469884E-02  1.871361E-02  4.287731E-02  1.224012E-02
   -23.7000  1.585898E-03  2.207984E-03  5.687063E-03  1.610428E-03
   -23.2500  8.680322E-04  1.283700E-03  3.880041E-03  1.024568E-03
   -22.8000  6.904526E-04  1.029957E-03  3.564203E-03  8.682315E-04
   -22.3500  6.334753E-04  9.250774E-04  3.591458E-03  8.017850E-04
   -21.9000  6.263578E-04  8.806497E-04  3.786353E-03  7.732401E-04
   -21.4500  6.501558E-04  8.692918E-04  4.099138E-03  7.608961E-04
   -21.0000 -1.037805E+00 -1.506080E-01 -1.495580E-02 -1.256999E-01
   -20.5500  7.816401E-04  9.182804E-04  5.130425E-03  7.784562E-04
   -20.1000  9.005417E-04  9.771483E-04  5.919924E-03  8.042008E-04
   -19.6500  1.081305E-03  1.077758E-03  7.128959E-03  8.894321E-04
   -19.2000 -7.453167E-03  1.475703E-02  9.754360E-03  5.791025E-04
   -18.7500  1.624924E-03  1.172383E-03  8.182254E-03  3.016711E-04
   -18.3000  3.252499E-03  2.750884E-03  2.932980E-02  4.674509E-03
   -17.8500 -2.756527E-02 -8.571867E-02 -1.875545E-01 -2.750541E-01
   -17.4000  6.291244E-03  2.582531E-03  3.303611E-02  1.303328E-03
   -16.9500  3.077274E-02  7.524876E-03  1.322895E-01  3.941095E-03
   -16.5000  2.650025E-01  1.949629E-02  8.426494E-01  1.281488E-02
   -16.0500  1.573402E-01  4.316695E-02  6.726623E-01  2.601539E-02
   -15.6000  2.023515E-02  6.832484E-03  4.467804E-02  6.265919E-04
   -15.1500  7.468206E-02  8.904901E-02  9.544528E-01  2.724146E-02
   -14.7000  6.048991E-02  1.328118E-01  9.416107E-01  3.467002E-02
   -14.2500  8.084176E-02  1.950136E-01  6.636436E-01  4.518589E-02
   -13.8000  1.066863E-01  1.446825E-02  2.494671E-01  9.082555E-04
   -13.3500  3.868720E-02  7.570045E-02  4.135370E-01  4.817003E-02
   -12.9000  1.479052E-02  4.054266E-02  2.083492E-01  4.640428E-02
   -12.4500  1.220323E-02  3.263319E-02  1.913141E-01  6.910403E-02
   -12.0000  2.045228E-02  3.908886E-02  2.538317E-01  4.090852E-02
   -11.5500  1.396015E-02  3.786270E-02  2.633304E-01  2.826158E-02
   -11.1000  2.624852E-02  2.613877E-02  3.602845E-01  2.035387E-02
   -10.6500  2.498257E-02  4.145081E-02  6.030604E-01  2.563026E-02
   -10.2000  1.332556E-01  6.049883E-02  9.926452E-01  3.210052E-03
    -9.7500  2.338936E-02  2.404527E-02  1.044143E+00  2.560369E-02
    -9.3000  4.165313E-02  3.035416E-02  1.335153E+00  3.024429E-02
    -8.8500  3.090376E-02  4.918796E-02  1.211238E+00  2.958727E-02
    -8.4000  6.555501E-02  8.410467E-02  3.678815E-01  5.261319E-03
    -7.9500  2.422794E-02  1.276958E-01  1.282004E+00  3.531848E-02
    -7.5000  1.792959E-02  8.756771E-02  8.251756E-01  2.454829E-02
    -7.0500  1.410490E-02  6.752783E-02  5.050737E-01  1.733243E-02
    -6.6000  1.481374E-02  6.608969E-02  3.527731E-01  1.889089E-02
    -6.1500  1.751750E-02  6.809097E-02  3.768768E-01  3.071732E-02
    -5.7000  1.686490E-02  5.821044E-02  4.070628E-01  3.438350E-02
    -5.2500  1.427008E-02  5.300238E-02  3.913562E-01  2.572609E-02
    -4.8000  4.834600E-02  1.059920E-01  1.296800E-01  1.251328E-02
    -4.3500  1.776585E-02  3.165114E-02  2.470909E-01  2.270318E-02
    -3.9000  2.344894E-02  3.126214E-02  2.497173E-01  2.666558E-02
    -3.4500  2.393052E-02  3.440784E-02  2.442894E-01  3.285065E-02
    -3.0000  4.748467E-02  1.026401E-01  1.359295E-01  2.446331E-02
    -2.5500  2.975124E-02  3.645391E-02  2.536756E-01  4.505237E-02
    -2.1000  3.356873E-02  3.566844E-02  2.617125E-01  4.512603E-02
    -1.6500  3.918513E-02  3.607788E-02  2.110904E-01  4.042277E-02
    -1.2000  5.206067E-02  3.710336E-02  1.667168E-01  3.814161E-02
    -0.7500  5.946438E-02  3.586576E-02  1.373086E-01  3.894882E-02
    -0.3000  5.973540E-02  3.561678E-02  1.245213E-01  4.039689E-02
     0.1500  5.521742E-02  3.885951E-02  1.210415E-01  4.103800E-02
     0.6000  4.040901E-02  1.100884E-01  1.043252E-01  4.701373E-02
     1.0500  6.128614E-02  5.242480E-02  1.082272E-01  4.499367E-02
     1.5000  6.738074E-02  5.753608E-02  9.882078E-02  4.854921E-02
     1.9500  7.539938E-02  6.178164E-02  9.058015E-02  5.319695E-02
     2.4000  3.742007E-02  1.116921E-01  9.729346E-02  6.206321E-02
     2.8500  8.594765E-02  7.153454E-02  8.649561E-02  6.156971E-02
     3.3000  7.319527E-02  7.090215E-02  7.844430E-02  6.378469E-02
     3.7500  6.616847E-02  7.051891E-02  7.214357E-02  6.791213E-02
     4.2000  6.438999E-02  7.637594E-02  7.257344E-02  7.507537E-02
     4.6500  6.336550E-02  8.570580E-02  7.645544E-02  8.191458E-02
     5.1000  6.434916E-02  9.177945E-02  7.902017E-02  8.566711E-02
     5.5500  6.582654E-02  9.696728E-02  8.076230E-02  8.805543E-02
     6.0000  3.235682E-02  1.116624E-01  9.167292E-02  1.002793E-01
     6.4500  5.888452E-02  1.059731E-01  7.826369E-02  9.166752E-02
     6.9000  5.249967E-02  1.089526E-01  7.408163E-02  9.445799E-02
     7.3500  4.770112E-02  1.148231E-01  7.045767E-02  9.881019E-02
     7.8000  3.022021E-02  1.103922E-01  9.150537E-02  1.233944E-01
     8.2500  4.253184E-02  1.337439E-01  6.800177E-02  1.078413E-01
     8.7000  4.003988E-02  1.415159E-01  6.948305E-02  1.119068E-01
     9.1500  3.623772E-02  1.464282E-01  7.230357E-02  1.172975E-01
     9.6000  3.200279E-02  1.481193E-01  7.560673E-02  1.240915E-01
    10.0500  2.902491E-02  1.442528E-01  7.845821E-02  1.307884E-01
    10.5000  2.769969E-02  1.342853E-01  8.053466E-02  1.355519E-01
    10.9500  2.767263E-02  1.229153E-01  8.251229E-02  1.388292E-01
    11.4000  2.660796E-02  1.061192E-01  9.428223E-02  1.763477E-01
    11.8500  2.908694E-02  1.098022E-01  8.513094E-02  1.460831E-01
    12.3000  2.917679E-02  1.072821E-01  8.371530E-02  1.499735E-01
    12.7500  2.868119E-02  1.058377E-01  8.119122E-02  1.536207E-01
    13.2000  2.764821E-02  1.047599E-01  7.868658E-02  1.568855E-01
    13.6500  2.608499E-02  1.039690E-01  7.668461E-02  1.599388E-01
    14.1000  2.430528E-02  1.040029E-01  7.536858E-02  1.634160E-01
    14.5500  2.289819E-02  1.059007E-01  7.480299E-02  1.678222E-01
    15.0000  2.221504E-02  1.101520E-01  7.474510E-02  1.735273E-01
